time/ms;Fluo/V;P700 deltaI/I x10³;
-199.8000;0.9353;0.0924;
-199.5000;0.9385;0.0971;
-199.2000;0.9345;0.0877;
-198.9000;0.9361;0.0806;
-198.6000;0.9377;0.0853;
-198.3000;0.9361;0.0782;
-198.0000;0.9353;0.0829;
-197.7000;0.9353;0.0877;
-197.4000;0.9345;0.0948;
-197.1000;0.9328;0.0995;
-196.8000;0.9337;0.1042;
-196.5000;0.9353;0.1019;
-196.2000;0.9312;0.0924;
-195.9000;0.9320;0.0853;
-195.6000;0.9345;0.0877;
-195.3000;0.9345;0.0971;
-195.0000;0.9345;0.0948;
-194.7000;0.9361;0.0995;
-194.4000;0.9353;0.0924;
-194.1000;0.9385;0.0971;
-193.8000;0.9345;0.0877;
-193.5000;0.9345;0.0900;
-193.2000;0.9345;0.0853;
-192.9000;0.9353;0.0877;
-192.6000;0.9345;0.0853;
-192.3000;0.9320;0.0853;
-192.0000;0.9337;0.0948;
-191.7000;0.9337;0.0924;
-191.4000;0.9312;0.0877;
-191.1000;0.9361;0.0948;
-190.8000;0.9328;0.0782;
-190.5000;0.9361;0.0782;
-190.2000;0.9337;0.0806;
-189.9000;0.9353;0.0877;
-189.6000;0.9345;0.0877;
-189.3000;0.9353;0.0900;
-189.0000;0.9377;0.0853;
-188.7000;0.9377;0.0877;
-188.4000;0.9377;0.0924;
-188.1000;0.9353;0.0971;
-187.8000;0.9402;0.1019;
-187.5000;0.9345;0.0900;
-187.2000;0.9345;0.0995;
-186.9000;0.9361;0.1066;
-186.6000;0.9361;0.1042;
-186.3000;0.9337;0.0995;
-186.0000;0.9345;0.1042;
-185.7000;0.9361;0.1042;
-185.4000;0.9361;0.1042;
-185.1000;0.9361;0.0971;
-184.8000;0.9337;0.0924;
-184.5000;0.9304;0.0853;
-184.2000;0.9337;0.0948;
-183.9000;0.9320;0.0900;
-183.6000;0.9328;0.0948;
-183.3000;0.9345;0.0900;
-183.0000;0.9361;0.0853;
-182.7000;0.9361;0.0877;
-182.4000;0.9353;0.0924;
-182.1000;0.9361;0.0924;
-181.8000;0.9328;0.0853;
-181.5000;0.9328;0.0900;
-181.2000;0.9345;0.0900;
-180.9000;0.9345;0.0877;
-180.6000;0.9345;0.0853;
-180.3000;0.9345;0.0782;
-180.0000;0.9353;0.0806;
-179.7000;0.9345;0.0877;
-179.4000;0.9353;0.0971;
-179.1000;0.9369;0.1042;
-178.8000;0.9345;0.0924;
-178.5000;0.9361;0.0948;
-178.2000;0.9337;0.0829;
-177.9000;0.9377;0.0924;
-177.6000;0.9353;0.0971;
-177.3000;0.9377;0.1019;
-177.0000;0.9337;0.0971;
-176.7000;0.9328;0.0900;
-176.4000;0.9361;0.1019;
-176.1000;0.9345;0.0971;
-175.8000;0.9353;0.1137;
-175.5000;0.9345;0.1114;
-175.2000;0.9320;0.1019;
-174.9000;0.9361;0.1161;
-174.6000;0.9345;0.0995;
-174.3000;0.9361;0.1042;
-174.0000;0.9377;0.1137;
-173.7000;0.9337;0.1066;
-173.4000;0.9304;0.0924;
-173.1000;0.9361;0.1042;
-172.8000;0.9345;0.1019;
-172.5000;0.9271;0.0900;
-172.2000;0.9377;0.1042;
-171.9000;0.9337;0.0900;
-171.6000;0.9361;0.0900;
-171.3000;0.9337;0.0924;
-171.0000;0.9361;0.0948;
-170.7000;0.9328;0.0971;
-170.4000;0.9312;0.1019;
-170.1000;0.9353;0.1066;
-169.8000;0.9320;0.0971;
-169.5000;0.9353;0.0971;
-169.2000;0.9337;0.0948;
-168.9000;0.9402;0.0995;
-168.6000;0.9361;0.0948;
-168.3000;0.9369;0.0948;
-168.0000;0.9361;0.0924;
-167.7000;0.9353;0.0924;
-167.4000;0.9345;0.0924;
-167.1000;0.9369;0.1019;
-166.8000;0.9345;0.0971;
-166.5000;0.9353;0.0971;
-166.2000;0.9353;0.0877;
-165.9000;0.9345;0.0806;
-165.6000;0.9345;0.0806;
-165.3000;0.9369;0.0853;
-165.0000;0.9353;0.0853;
-164.7000;0.9353;0.0900;
-164.4000;0.9361;0.0924;
-164.1000;0.9353;0.0924;
-163.8000;0.9345;0.0924;
-163.5000;0.9369;0.0971;
-163.2000;0.9369;0.0948;
-162.9000;0.9353;0.0877;
-162.6000;0.9280;0.0663;
-162.3000;0.9361;0.0853;
-162.0000;0.9361;0.0900;
-161.7000;0.9345;0.0758;
-161.4000;0.9353;0.0782;
-161.1000;0.9337;0.0806;
-160.8000;0.9377;0.0995;
-160.5000;0.9320;0.0948;
-160.2000;0.9353;0.1019;
-159.9000;0.9337;0.1019;
-159.6000;0.9353;0.1019;
-159.3000;0.9328;0.0948;
-159.0000;0.9328;0.0924;
-158.7000;0.9353;0.0877;
-158.4000;0.9369;0.0924;
-158.1000;0.9377;0.0948;
-157.8000;0.9320;0.0829;
-157.5000;0.9337;0.0877;
-157.2000;0.9345;0.0900;
-156.9000;0.9402;0.0995;
-156.6000;0.9345;0.0829;
-156.3000;0.9320;0.0782;
-156.0000;0.9361;0.0853;
-155.7000;0.9296;0.0711;
-155.4000;0.9328;0.0806;
-155.1000;0.9353;0.0900;
-154.8000;0.9402;0.0995;
-154.5000;0.9361;0.0877;
-154.2000;0.9353;0.0948;
-153.9000;0.9345;0.0948;
-153.6000;0.9385;0.1114;
-153.3000;0.9312;0.0995;
-153.0000;0.9353;0.1019;
-152.7000;0.9345;0.0900;
-152.4000;0.9369;0.0900;
-152.1000;0.9353;0.0806;
-151.8000;0.9377;0.0877;
-151.5000;0.9369;0.0924;
-151.2000;0.9369;0.0995;
-150.9000;0.9369;0.0948;
-150.6000;0.9353;0.0829;
-150.3000;0.9361;0.0782;
-150.0000;0.9353;0.0734;
-149.7000;0.9345;0.0711;
-149.4000;0.9353;0.0782;
-149.1000;0.9345;0.0806;
-148.8000;0.9328;0.0853;
-148.5000;0.9353;0.0900;
-148.2000;0.9353;0.0853;
-147.9000;0.9345;0.0782;
-147.6000;0.9337;0.0758;
-147.3000;0.9345;0.0711;
-147.0000;0.9361;0.0782;
-146.7000;0.9377;0.0663;
-146.4000;0.9328;0.0545;
-146.1000;0.9337;0.0545;
-145.8000;0.9361;0.0616;
-145.5000;0.9353;0.0592;
-145.2000;0.9361;0.0569;
-144.9000;0.9353;0.0640;
-144.6000;0.9361;0.0616;
-144.3000;0.9353;0.0640;
-144.0000;0.9361;0.0687;
-143.7000;0.9345;0.0640;
-143.4000;0.9337;0.0663;
-143.1000;0.9353;0.0663;
-142.8000;0.9353;0.0687;
-142.5000;0.9353;0.0687;
-142.2000;0.9369;0.0687;
-141.9000;0.9369;0.0711;
-141.6000;0.9385;0.0806;
-141.3000;0.9353;0.0711;
-141.0000;0.9369;0.0758;
-140.7000;0.9369;0.0758;
-140.4000;0.9369;0.0806;
-140.1000;0.9312;0.0687;
-139.8000;0.9345;0.0782;
-139.5000;0.9361;0.0758;
-139.2000;0.9353;0.0829;
-138.9000;0.9345;0.0829;
-138.6000;0.9410;0.1019;
-138.3000;0.9353;0.0853;
-138.0000;0.9361;0.0877;
-137.7000;0.9377;0.0971;
-137.4000;0.9353;0.0948;
-137.1000;0.9345;0.0948;
-136.8000;0.9353;0.0924;
-136.5000;0.9337;0.0829;
-136.2000;0.9353;0.0806;
-135.9000;0.9337;0.0758;
-135.6000;0.9345;0.0806;
-135.3000;0.9328;0.0782;
-135.0000;0.9320;0.0806;
-134.7000;0.9328;0.0853;
-134.4000;0.9328;0.0877;
-134.1000;0.9353;0.0877;
-133.8000;0.9337;0.0806;
-133.5000;0.9328;0.0687;
-133.2000;0.9353;0.0734;
-132.9000;0.9361;0.0782;
-132.6000;0.9337;0.0829;
-132.3000;0.9353;0.0782;
-132.0000;0.9345;0.0758;
-131.7000;0.9361;0.0782;
-131.4000;0.9361;0.0782;
-131.1000;0.9337;0.0806;
-130.8000;0.9418;0.1066;
-130.5000;0.9337;0.0900;
-130.2000;0.9361;0.0971;
-129.9000;0.9337;0.0995;
-129.6000;0.9353;0.0971;
-129.3000;0.9337;0.0948;
-129.0000;0.9353;0.0948;
-128.7000;0.9353;0.0877;
-128.4000;0.9320;0.0829;
-128.1000;0.9337;0.0829;
-127.8000;0.9361;0.0687;
-127.5000;0.9337;0.0663;
-127.2000;0.9361;0.0687;
-126.9000;0.9353;0.0711;
-126.6000;0.9361;0.0663;
-126.3000;0.9369;0.0734;
-126.0000;0.9337;0.0758;
-125.7000;0.9353;0.0663;
-125.4000;0.9353;0.0687;
-125.1000;0.9369;0.0829;
-124.8000;0.9353;0.0782;
-124.5000;0.9353;0.0806;
-124.2000;0.9353;0.0806;
-123.9000;0.9353;0.0806;
-123.6000;0.9353;0.0900;
-123.3000;0.9345;0.0900;
-123.0000;0.9337;0.0924;
-122.7000;0.9345;0.0877;
-122.4000;0.9369;0.0900;
-122.1000;0.9353;0.0829;
-121.8000;0.9353;0.0853;
-121.5000;0.9353;0.0853;
-121.2000;0.9296;0.0687;
-120.9000;0.9353;0.0853;
-120.6000;0.9328;0.0853;
-120.3000;0.9361;0.0900;
-120.0000;0.9345;0.0829;
-119.7000;0.9361;0.0829;
-119.4000;0.9353;0.0758;
-119.1000;0.9361;0.0782;
-118.8000;0.9353;0.0734;
-118.5000;0.9353;0.0829;
-118.2000;0.9320;0.0829;
-117.9000;0.9345;0.0806;
-117.6000;0.9361;0.0782;
-117.3000;0.9353;0.0758;
-117.0000;0.9345;0.0711;
-116.7000;0.9345;0.0711;
-116.4000;0.9345;0.0687;
-116.1000;0.9345;0.0782;
-115.8000;0.9353;0.0758;
-115.5000;0.9345;0.0782;
-115.2000;0.9369;0.0829;
-114.9000;0.9394;0.0877;
-114.6000;0.9410;0.0948;
-114.3000;0.9345;0.0734;
-114.0000;0.9353;0.0663;
-113.7000;0.9353;0.0734;
-113.4000;0.9418;0.0948;
-113.1000;0.9337;0.0829;
-112.8000;0.9337;0.0806;
-112.5000;0.9345;0.0782;
-112.2000;0.9353;0.0782;
-111.9000;0.9337;0.0806;
-111.6000;0.9353;0.0971;
-111.3000;0.9328;0.0995;
-111.0000;0.9377;0.0971;
-110.7000;0.9353;0.0900;
-110.4000;0.9328;0.0853;
-110.1000;0.9402;0.1042;
-109.8000;0.9369;0.0948;
-109.5000;0.9353;0.0948;
-109.2000;0.9353;0.0924;
-108.9000;0.9345;0.0948;
-108.6000;0.9345;0.1019;
-108.3000;0.9377;0.1066;
-108.0000;0.9377;0.1066;
-107.7000;0.9320;0.0971;
-107.4000;0.9337;0.1042;
-107.1000;0.9361;0.1042;
-106.8000;0.9345;0.1019;
-106.5000;0.9345;0.0948;
-106.2000;0.9337;0.0924;
-105.9000;0.9369;0.0995;
-105.6000;0.9353;0.0877;
-105.3000;0.9337;0.0853;
-105.0000;0.9410;0.1019;
-104.7000;0.9345;0.0806;
-104.4000;0.9410;0.0995;
-104.1000;0.9320;0.0782;
-103.8000;0.9328;0.0782;
-103.5000;0.9345;0.0782;
-103.2000;0.9337;0.0829;
-102.9000;0.9320;0.0853;
-102.6000;0.9337;0.0900;
-102.3000;0.9337;0.0924;
-102.0000;0.9320;0.0948;
-101.7000;0.9345;0.1042;
-101.4000;0.9337;0.0995;
-101.1000;0.9353;0.0971;
-100.8000;0.9353;0.0971;
-100.5000;0.9353;0.0971;
-100.2000;0.9377;0.0995;
-99.9000;0.9304;0.0734;
-99.6000;0.9353;0.0853;
-99.3000;0.9361;0.0948;
-99.0000;0.9377;0.1042;
-98.7000;0.9353;0.0924;
-98.4000;0.9345;0.0877;
-98.1000;0.9361;0.0948;
-97.8000;0.9385;0.1042;
-97.5000;0.9337;0.0971;
-97.2000;0.9361;0.0995;
-96.9000;0.9353;0.1019;
-96.6000;0.9377;0.1042;
-96.3000;0.9345;0.0971;
-96.0000;0.9369;0.0948;
-95.7000;0.9353;0.0829;
-95.4000;0.9345;0.0829;
-95.1000;0.9353;0.0877;
-94.8000;0.9353;0.0995;
-94.5000;0.9361;0.1042;
-94.2000;0.9361;0.1019;
-93.9000;0.9345;0.0924;
-93.6000;0.9345;0.0948;
-93.3000;0.9345;0.0995;
-93.0000;0.9361;0.0948;
-92.7000;0.9361;0.0900;
-92.4000;0.9304;0.0687;
-92.1000;0.9288;0.0640;
-91.8000;0.9345;0.0711;
-91.5000;0.9353;0.0806;
-91.2000;0.9337;0.0782;
-90.9000;0.9337;0.0806;
-90.6000;0.9394;0.0924;
-90.3000;0.9353;0.0758;
-90.0000;0.9361;0.0758;
-89.7000;0.9361;0.0829;
-89.4000;0.9345;0.0782;
-89.1000;0.9337;0.0711;
-88.8000;0.9353;0.0806;
-88.5000;0.9353;0.0806;
-88.2000;0.9361;0.0711;
-87.9000;0.9345;0.0734;
-87.6000;0.9353;0.0806;
-87.3000;0.9337;0.0758;
-87.0000;0.9337;0.0782;
-86.7000;0.9345;0.0806;
-86.4000;0.9353;0.0758;
-86.1000;0.9337;0.0663;
-85.8000;0.9328;0.0592;
-85.5000;0.9345;0.0640;
-85.2000;0.9369;0.0711;
-84.9000;0.9345;0.0687;
-84.6000;0.9312;0.0592;
-84.3000;0.9353;0.0592;
-84.0000;0.9345;0.0474;
-83.7000;0.9304;0.0498;
-83.4000;0.9385;0.0616;
-83.1000;0.9353;0.0498;
-82.8000;0.9361;0.0545;
-82.5000;0.9385;0.0616;
-82.2000;0.9353;0.0545;
-81.9000;0.9337;0.0498;
-81.6000;0.9320;0.0498;
-81.3000;0.9345;0.0616;
-81.0000;0.9288;0.0569;
-80.7000;0.9337;0.0711;
-80.4000;0.9337;0.0640;
-80.1000;0.9328;0.0663;
-79.8000;0.9353;0.0687;
-79.5000;0.9345;0.0640;
-79.2000;0.9345;0.0687;
-78.9000;0.9345;0.0687;
-78.6000;0.9353;0.0782;
-78.3000;0.9353;0.0734;
-78.0000;0.9353;0.0806;
-77.7000;0.9451;0.1042;
-77.4000;0.9353;0.0877;
-77.1000;0.9361;0.0877;
-76.8000;0.9337;0.0734;
-76.5000;0.9328;0.0734;
-76.2000;0.9353;0.0758;
-75.9000;0.9353;0.0734;
-75.6000;0.9353;0.0734;
-75.3000;0.9328;0.0734;
-75.0000;0.9361;0.0806;
-74.7000;0.9361;0.0806;
-74.4000;0.9345;0.0924;
-74.1000;0.9385;0.1042;
-73.8000;0.9353;0.0924;
-73.5000;0.9361;0.0900;
-73.2000;0.9353;0.0877;
-72.9000;0.9337;0.0948;
-72.6000;0.9328;0.0995;
-72.3000;0.9353;0.1090;
-72.0000;0.9312;0.0853;
-71.7000;0.9337;0.0924;
-71.4000;0.9361;0.0877;
-71.1000;0.9385;0.0900;
-70.8000;0.9345;0.0829;
-70.5000;0.9345;0.0853;
-70.2000;0.9320;0.0829;
-69.9000;0.9312;0.0829;
-69.6000;0.9328;0.0877;
-69.3000;0.9320;0.0758;
-69.0000;0.9296;0.0640;
-68.7000;0.9361;0.0829;
-68.4000;0.9345;0.0806;
-68.1000;0.9353;0.0829;
-67.8000;0.9296;0.0782;
-67.5000;0.9337;0.0853;
-67.2000;0.9353;0.0853;
-66.9000;0.9345;0.0806;
-66.6000;0.9337;0.0758;
-66.3000;0.9345;0.0687;
-66.0000;0.9345;0.0758;
-65.7000;0.9337;0.0758;
-65.4000;0.9345;0.0782;
-65.1000;0.9345;0.0734;
-64.8000;0.9337;0.0711;
-64.5000;0.9353;0.0687;
-64.2000;0.9361;0.0782;
-63.9000;0.9337;0.0758;
-63.6000;0.9369;0.0853;
-63.3000;0.9345;0.0663;
-63.0000;0.9361;0.0734;
-62.7000;0.9345;0.0758;
-62.4000;0.9345;0.0734;
-62.1000;0.9353;0.0663;
-61.8000;0.9353;0.0616;
-61.5000;0.9345;0.0545;
-61.2000;0.9418;0.0711;
-60.9000;0.9353;0.0545;
-60.6000;0.9288;0.0355;
-60.3000;0.9328;0.0450;
-60.0000;0.9345;0.0474;
-59.7000;0.9312;0.0450;
-59.4000;0.9353;0.0498;
-59.1000;0.9353;0.0498;
-58.8000;0.9337;0.0450;
-58.5000;0.9345;0.0450;
-58.2000;0.9345;0.0521;
-57.9000;0.9328;0.0545;
-57.6000;0.9361;0.0592;
-57.3000;0.9345;0.0474;
-57.0000;0.9353;0.0545;
-56.7000;0.9337;0.0569;
-56.4000;0.9426;0.0734;
-56.1000;0.9361;0.0640;
-55.8000;0.9280;0.0498;
-55.5000;0.9328;0.0782;
-55.2000;0.9353;0.0900;
-54.9000;0.9337;0.0853;
-54.6000;0.9353;0.0877;
-54.3000;0.9328;0.0853;
-54.0000;0.9361;0.0971;
-53.7000;0.9337;0.0900;
-53.4000;0.9353;0.0758;
-53.1000;0.9361;0.0734;
-52.8000;0.9361;0.0711;
-52.5000;0.9361;0.0782;
-52.2000;0.9345;0.0758;
-51.9000;0.9369;0.0877;
-51.6000;0.9353;0.0829;
-51.3000;0.9353;0.0711;
-51.0000;0.9345;0.0640;
-50.7000;0.9369;0.0687;
-50.4000;0.9345;0.0687;
-50.1000;0.9369;0.0663;
-49.8000;0.9345;0.0616;
-49.5000;0.9361;0.0592;
-49.2000;0.9345;0.0545;
-48.9000;0.9337;0.0545;
-48.6000;0.9328;0.0569;
-48.3000;0.9328;0.0569;
-48.0000;0.9353;0.0569;
-47.7000;0.9328;0.0545;
-47.4000;0.9337;0.0545;
-47.1000;0.9320;0.0450;
-46.8000;0.9345;0.0450;
-46.5000;0.9369;0.0545;
-46.2000;0.9337;0.0545;
-45.9000;0.9353;0.0498;
-45.6000;0.9353;0.0474;
-45.3000;0.9353;0.0521;
-45.0000;0.9280;0.0403;
-44.7000;0.9345;0.0521;
-44.4000;0.9369;0.0616;
-44.1000;0.9361;0.0687;
-43.8000;0.9345;0.0711;
-43.5000;0.9312;0.0616;
-43.2000;0.9353;0.0545;
-42.9000;0.9353;0.0521;
-42.6000;0.9361;0.0450;
-42.3000;0.9337;0.0308;
-42.0000;0.9361;0.0403;
-41.7000;0.9369;0.0450;
-41.4000;0.9361;0.0545;
-41.1000;0.9280;0.0332;
-40.8000;0.9369;0.0592;
-40.5000;0.9369;0.0711;
-40.2000;0.9328;0.0521;
-39.9000;0.9418;0.0734;
-39.6000;0.9345;0.0569;
-39.3000;0.9353;0.0498;
-39.0000;0.9361;0.0569;
-38.7000;0.9361;0.0592;
-38.4000;0.9361;0.0663;
-38.1000;0.9402;0.0782;
-37.8000;0.9328;0.0640;
-37.5000;0.9361;0.0616;
-37.2000;0.9337;0.0592;
-36.9000;0.9345;0.0640;
-36.6000;0.9328;0.0616;
-36.3000;0.9345;0.0498;
-36.0000;0.9369;0.0450;
-35.7000;0.9361;0.0474;
-35.4000;0.9369;0.0498;
-35.1000;0.9345;0.0569;
-34.8000;0.9304;0.0498;
-34.5000;0.9345;0.0640;
-34.2000;0.9361;0.0734;
-33.9000;0.9369;0.0806;
-33.6000;0.9345;0.0687;
-33.3000;0.9304;0.0663;
-33.0000;0.9337;0.0806;
-32.7000;0.9337;0.0853;
-32.4000;0.9337;0.0877;
-32.1000;0.9353;0.0853;
-31.8000;0.9337;0.0829;
-31.5000;0.9345;0.0758;
-31.2000;0.9369;0.0782;
-30.9000;0.9361;0.0734;
-30.6000;0.9328;0.0711;
-30.3000;0.9353;0.0734;
-30.0000;0.9361;0.0758;
-29.7000;0.9353;0.0711;
-29.4000;0.9369;0.0782;
-29.1000;0.9361;0.0877;
-28.8000;0.9353;0.0948;
-28.5000;0.9345;0.0971;
-28.2000;0.9337;0.0782;
-27.9000;0.9361;0.0806;
-27.6000;0.9361;0.0758;
-27.3000;0.9328;0.0782;
-27.0000;0.9353;0.0853;
-26.7000;0.9345;0.0948;
-26.4000;0.9345;0.0971;
-26.1000;0.9345;0.0924;
-25.8000;0.9345;0.0971;
-25.5000;0.9337;0.0900;
-25.2000;0.9361;0.1019;
-24.9000;0.9361;0.0948;
-24.6000;0.9353;0.0877;
-24.3000;0.9353;0.0853;
-24.0000;0.9353;0.0853;
-23.7000;0.9361;0.0782;
-23.4000;0.9369;0.0734;
-23.1000;0.9328;0.0734;
-22.8000;0.9320;0.0734;
-22.5000;0.9328;0.0806;
-22.2000;0.9353;0.0853;
-21.9000;0.9345;0.0971;
-21.6000;0.9345;0.0995;
-21.3000;0.9337;0.0924;
-21.0000;0.9345;0.0877;
-20.7000;0.9361;0.0877;
-20.4000;0.9296;0.0758;
-20.1000;0.9353;0.0877;
-19.8000;0.9353;0.0782;
-19.5000;0.9410;0.0829;
-19.2000;0.9361;0.0640;
-18.9000;0.9328;0.0521;
-18.6000;0.9369;0.0521;
-18.3000;0.9418;0.0569;
-18.0000;0.9345;0.0355;
-17.7000;0.9361;0.0332;
-17.4000;0.9402;0.0403;
-17.1000;0.9345;0.0379;
-16.8000;0.9394;0.0569;
-16.5000;0.9345;0.0498;
-16.2000;0.9337;0.0545;
-15.9000;0.9369;0.0569;
-15.6000;0.9369;0.0545;
-15.3000;0.9410;0.0569;
-15.0000;0.9353;0.0521;
-14.7000;0.9369;0.0592;
-14.4000;0.9361;0.0592;
-14.1000;0.9353;0.0498;
-13.8000;0.9402;0.0545;
-13.5000;0.9361;0.0474;
-13.2000;0.9345;0.0663;
-12.9000;0.9353;0.0734;
-12.6000;0.9361;0.0829;
-12.3000;0.9320;0.0758;
-12.0000;0.9345;0.0758;
-11.7000;0.9328;0.0734;
-11.4000;0.9337;0.0687;
-11.1000;0.9434;0.0924;
-10.8000;0.9312;0.0640;
-10.5000;0.9361;0.0734;
-10.2000;0.9345;0.0758;
-9.9000;0.9353;0.0877;
-9.6000;0.9345;0.0900;
-9.3000;0.9337;0.0877;
-9.0000;0.9345;0.0853;
-8.7000;0.9337;0.0853;
-8.4000;0.9353;0.0900;
-8.1000;0.9353;0.0900;
-7.8000;0.9328;0.0806;
-7.5000;0.9328;0.0900;
-7.2000;0.9345;0.0900;
-6.9000;0.9337;0.0829;
-6.6000;0.9337;0.0711;
-6.3000;0.9353;0.0663;
-6.0000;0.9288;0.0521;
-5.7000;0.9328;0.0663;
-5.4000;0.9337;0.0640;
-5.1000;0.9345;0.0640;
-4.8000;0.9337;0.0687;
-4.5000;0.9337;0.0663;
-4.2000;0.9353;0.0734;
-3.9000;0.9337;0.0711;
-3.6000;0.9345;0.0663;
-3.3000;0.9345;0.0758;
-3.0000;0.9353;0.0782;
-2.7000;0.9361;0.0711;
-2.4000;0.9361;0.0616;
-2.1000;0.9353;0.0569;
-1.8000;0.9369;0.0640;
-1.5000;0.9288;0.0498;
-1.2000;0.9353;0.0569;
-0.9000;0.9337;0.0592;
-0.6000;0.9337;0.0521;
-0.3000;0.9328;0.0426;
0.0000;0.9328;0.0426;
0.3000;0.9418;0.0190;
0.6000;0.9475;0.0711;
0.9000;0.9499;0.1042;
1.2000;0.9540;0.1469;
1.5000;0.9532;0.1635;
1.8000;0.9597;0.2038;
2.1000;0.9613;0.2251;
2.4000;0.9605;0.2488;
2.7000;0.9630;0.2583;
3.0000;0.9646;0.2725;
3.3000;0.9638;0.2772;
3.6000;0.9678;0.2867;
3.9000;0.9670;0.2914;
4.2000;0.9687;0.3056;
4.5000;0.9703;0.3175;
4.8000;0.9621;0.2985;
5.1000;0.9695;0.3175;
5.4000;0.9695;0.3104;
5.7000;0.9678;0.2938;
6.0000;0.9711;0.3080;
6.3000;0.9711;0.3246;
6.6000;0.9711;0.3270;
6.9000;0.9744;0.3435;
7.2000;0.9735;0.3435;
7.5000;0.9719;0.3246;
7.8000;0.9703;0.3199;
8.1000;0.9719;0.3293;
8.4000;0.9678;0.3222;
8.7000;0.9744;0.3341;
9.0000;0.9727;0.3364;
9.3000;0.9662;0.3293;
9.6000;0.9735;0.3483;
9.9000;0.9760;0.3483;
10.2000;0.9735;0.3412;
10.5000;0.9727;0.3435;
10.8000;0.9735;0.3459;
11.1000;0.9703;0.3364;
11.4000;0.9768;0.3530;
11.7000;0.9752;0.3507;
12.0000;0.9752;0.3507;
12.3000;0.9776;0.3554;
12.6000;0.9711;0.3412;
12.9000;0.9760;0.3412;
13.2000;0.9752;0.3412;
13.5000;0.9752;0.3435;
13.8000;0.9768;0.3412;
14.1000;0.9768;0.3388;
14.4000;0.9752;0.3270;
14.7000;0.9760;0.3293;
15.0000;0.9768;0.3341;
15.3000;0.9752;0.3270;
15.6000;0.9735;0.3175;
15.9000;0.9744;0.3270;
16.2000;0.9776;0.3435;
16.5000;0.9760;0.3388;
16.8000;0.9760;0.3435;
17.1000;0.9776;0.3507;
17.4000;0.9776;0.3530;
17.7000;0.9768;0.3483;
18.0000;0.9776;0.3459;
18.3000;0.9760;0.3435;
18.6000;0.9776;0.3483;
18.9000;0.9760;0.3483;
19.2000;0.9776;0.3459;
19.5000;0.9768;0.3459;
19.8000;0.9784;0.3459;
20.1000;0.9776;0.3412;
20.4000;0.9784;0.3293;
20.7000;0.9768;0.3199;
21.0000;0.9776;0.3246;
21.3000;0.9801;0.3317;
21.6000;0.9801;0.3293;
21.9000;0.9768;0.3246;
22.2000;0.9768;0.3270;
22.5000;0.9784;0.3341;
22.8000;0.9784;0.3246;
23.1000;0.9719;0.3104;
23.4000;0.9776;0.3222;
23.7000;0.9768;0.3246;
24.0000;0.9792;0.3317;
24.3000;0.9776;0.3270;
24.6000;0.9760;0.3270;
24.9000;0.9776;0.3270;
25.2000;0.9768;0.3270;
25.5000;0.9776;0.3293;
25.8000;0.9744;0.3246;
26.1000;0.9776;0.3270;
26.4000;0.9752;0.3270;
26.7000;0.9784;0.3459;
27.0000;0.9768;0.3435;
27.3000;0.9792;0.3459;
27.6000;0.9744;0.3341;
27.9000;0.9792;0.3435;
28.2000;0.9776;0.3412;
28.5000;0.9752;0.3388;
28.8000;0.9776;0.3483;
29.1000;0.9801;0.3435;
29.4000;0.9792;0.3341;
29.7000;0.9792;0.3270;
30.0000;0.9817;0.3412;
30.3000;0.9825;0.3459;
30.6000;0.9776;0.3435;
30.9000;0.9768;0.3435;
31.2000;0.9784;0.3364;
31.5000;0.9776;0.3341;
31.8000;0.9744;0.3388;
32.1000;0.9801;0.3459;
32.4000;0.9776;0.3388;
32.7000;0.9784;0.3341;
33.0000;0.9801;0.3341;
33.3000;0.9776;0.3364;
33.6000;0.9776;0.3388;
33.9000;0.9833;0.3435;
34.2000;0.9792;0.3412;
34.5000;0.9817;0.3459;
34.8000;0.9792;0.3412;
35.1000;0.9784;0.3435;
35.4000;0.9784;0.3483;
35.7000;0.9727;0.3341;
36.0000;0.9760;0.3483;
36.3000;0.9760;0.3601;
36.6000;0.9776;0.3672;
36.9000;0.9784;0.3578;
37.2000;0.9776;0.3578;
37.5000;0.9849;0.3720;
37.8000;0.9792;0.3578;
