time/ms;Fluo/V;P700 deltaI/I x10³;
-199.8000;0.9312;0.0900;
-199.5000;0.9337;0.0948;
-199.2000;0.9345;0.0971;
-198.9000;0.9280;0.0853;
-198.6000;0.9467;0.1303;
-198.3000;0.9337;0.1019;
-198.0000;0.9304;0.0900;
-197.7000;0.9337;0.1042;
-197.4000;0.9337;0.1114;
-197.1000;0.9345;0.1019;
-196.8000;0.9320;0.0971;
-196.5000;0.9345;0.0995;
-196.2000;0.9320;0.0948;
-195.9000;0.9320;0.0924;
-195.6000;0.9328;0.0924;
-195.3000;0.9345;0.0924;
-195.0000;0.9353;0.0924;
-194.7000;0.9328;0.0877;
-194.4000;0.9337;0.0971;
-194.1000;0.9337;0.0924;
-193.8000;0.9328;0.0995;
-193.5000;0.9328;0.0995;
-193.2000;0.9337;0.0900;
-192.9000;0.9377;0.1019;
-192.6000;0.9288;0.0782;
-192.3000;0.9345;0.0924;
-192.0000;0.9337;0.0900;
-191.7000;0.9304;0.0829;
-191.4000;0.9345;0.0924;
-191.1000;0.9337;0.0948;
-190.8000;0.9426;0.1137;
-190.5000;0.9337;0.0948;
-190.2000;0.9353;0.0971;
-189.9000;0.9377;0.1066;
-189.6000;0.9361;0.1090;
-189.3000;0.9345;0.0948;
-189.0000;0.9345;0.0900;
-188.7000;0.9345;0.0948;
-188.4000;0.9328;0.0971;
-188.1000;0.9345;0.0971;
-187.8000;0.9328;0.0995;
-187.5000;0.9353;0.0971;
-187.2000;0.9377;0.1042;
-186.9000;0.9369;0.1019;
-186.6000;0.9296;0.0877;
-186.3000;0.9361;0.0995;
-186.0000;0.9345;0.0995;
-185.7000;0.9312;0.0948;
-185.4000;0.9328;0.0948;
-185.1000;0.9328;0.0900;
-184.8000;0.9385;0.1066;
-184.5000;0.9337;0.0948;
-184.2000;0.9328;0.0948;
-183.9000;0.9345;0.1019;
-183.6000;0.9345;0.0924;
-183.3000;0.9337;0.1042;
-183.0000;0.9345;0.1019;
-182.7000;0.9361;0.0995;
-182.4000;0.9385;0.1019;
-182.1000;0.9320;0.0782;
-181.8000;0.9361;0.0853;
-181.5000;0.9304;0.0782;
-181.2000;0.9280;0.0687;
-180.9000;0.9304;0.0734;
-180.6000;0.9418;0.0924;
-180.3000;0.9345;0.0853;
-180.0000;0.9320;0.0877;
-179.7000;0.9337;0.0995;
-179.4000;0.9337;0.0900;
-179.1000;0.9296;0.0758;
-178.8000;0.9361;0.0900;
-178.5000;0.9345;0.0900;
-178.2000;0.9288;0.0687;
-177.9000;0.9345;0.0877;
-177.6000;0.9402;0.1042;
-177.3000;0.9353;0.0877;
-177.0000;0.9337;0.0806;
-176.7000;0.9345;0.0829;
-176.4000;0.9328;0.0877;
-176.1000;0.9345;0.0924;
-175.8000;0.9296;0.0806;
-175.5000;0.9337;0.0948;
-175.2000;0.9320;0.0877;
-174.9000;0.9345;0.0948;
-174.6000;0.9434;0.1042;
-174.3000;0.9337;0.0829;
-174.0000;0.9337;0.0829;
-173.7000;0.9434;0.1019;
-173.4000;0.9369;0.0829;
-173.1000;0.9418;0.0971;
-172.8000;0.9320;0.0829;
-172.5000;0.9337;0.0853;
-172.2000;0.9304;0.0711;
-171.9000;0.9337;0.0924;
-171.6000;0.9337;0.1019;
-171.3000;0.9337;0.0971;
-171.0000;0.9337;0.0877;
-170.7000;0.9320;0.0806;
-170.4000;0.9320;0.0758;
-170.1000;0.9353;0.0971;
-169.8000;0.9345;0.0900;
-169.5000;0.9345;0.0900;
-169.2000;0.9337;0.0853;
-168.9000;0.9353;0.0900;
-168.6000;0.9353;0.0900;
-168.3000;0.9345;0.0924;
-168.0000;0.9394;0.1019;
-167.7000;0.9337;0.0853;
-167.4000;0.9345;0.0900;
-167.1000;0.9361;0.0853;
-166.8000;0.9361;0.0711;
-166.5000;0.9312;0.0663;
-166.2000;0.9361;0.0687;
-165.9000;0.9345;0.0616;
-165.6000;0.9385;0.0663;
-165.3000;0.9353;0.0640;
-165.0000;0.9353;0.0711;
-164.7000;0.9328;0.0758;
-164.4000;0.9345;0.0853;
-164.1000;0.9353;0.0806;
-163.8000;0.9337;0.0758;
-163.5000;0.9337;0.0877;
-163.2000;0.9320;0.0900;
-162.9000;0.9369;0.0971;
-162.6000;0.9353;0.0853;
-162.3000;0.9361;0.0806;
-162.0000;0.9337;0.0758;
-161.7000;0.9345;0.0734;
-161.4000;0.9353;0.0734;
-161.1000;0.9361;0.0687;
-160.8000;0.9410;0.0806;
-160.5000;0.9345;0.0711;
-160.2000;0.9296;0.0640;
-159.9000;0.9385;0.0853;
-159.6000;0.9345;0.0806;
-159.3000;0.9337;0.0806;
-159.0000;0.9402;0.0924;
-158.7000;0.9320;0.0782;
-158.4000;0.9353;0.0734;
-158.1000;0.9361;0.0782;
-157.8000;0.9369;0.0877;
-157.5000;0.9361;0.0782;
-157.2000;0.9345;0.0853;
-156.9000;0.9345;0.0995;
-156.6000;0.9353;0.0971;
-156.3000;0.9369;0.0948;
-156.0000;0.9353;0.0900;
-155.7000;0.9353;0.0948;
-155.4000;0.9345;0.0853;
-155.1000;0.9361;0.0900;
-154.8000;0.9337;0.0829;
-154.5000;0.9369;0.0900;
-154.2000;0.9345;0.0900;
-153.9000;0.9353;0.0971;
-153.6000;0.9312;0.0829;
-153.3000;0.9361;0.0853;
-153.0000;0.9353;0.0806;
-152.7000;0.9312;0.0734;
-152.4000;0.9353;0.0877;
-152.1000;0.9345;0.0853;
-151.8000;0.9337;0.0806;
-151.5000;0.9410;0.0924;
-151.2000;0.9328;0.0687;
-150.9000;0.9337;0.0734;
-150.6000;0.9369;0.0924;
-150.3000;0.9337;0.0877;
-150.0000;0.9377;0.0877;
-149.7000;0.9304;0.0734;
-149.4000;0.9337;0.0758;
-149.1000;0.9353;0.0829;
-148.8000;0.9337;0.0758;
-148.5000;0.9337;0.0829;
-148.2000;0.9328;0.0758;
-147.9000;0.9337;0.0734;
-147.6000;0.9337;0.0663;
-147.3000;0.9337;0.0758;
-147.0000;0.9353;0.0782;
-146.7000;0.9312;0.0782;
-146.4000;0.9345;0.0853;
-146.1000;0.9337;0.0806;
-145.8000;0.9345;0.0782;
-145.5000;0.9402;0.0900;
-145.2000;0.9385;0.0806;
-144.9000;0.9377;0.0806;
-144.6000;0.9361;0.0758;
-144.3000;0.9345;0.0687;
-144.0000;0.9296;0.0663;
-143.7000;0.9328;0.0711;
-143.4000;0.9385;0.0734;
-143.1000;0.9328;0.0616;
-142.8000;0.9328;0.0592;
-142.5000;0.9328;0.0569;
-142.2000;0.9345;0.0569;
-141.9000;0.9320;0.0521;
-141.6000;0.9361;0.0687;
-141.3000;0.9369;0.0758;
-141.0000;0.9353;0.0758;
-140.7000;0.9312;0.0687;
-140.4000;0.9328;0.0734;
-140.1000;0.9328;0.0806;
-139.8000;0.9337;0.0900;
-139.5000;0.9337;0.0948;
-139.2000;0.9337;0.0924;
-138.9000;0.9361;0.0971;
-138.6000;0.9345;0.0829;
-138.3000;0.9337;0.0877;
-138.0000;0.9312;0.0853;
-137.7000;0.9337;0.0829;
-137.4000;0.9337;0.0877;
-137.1000;0.9320;0.0877;
-136.8000;0.9361;0.1066;
-136.5000;0.9345;0.0900;
-136.2000;0.9345;0.0853;
-135.9000;0.9328;0.0853;
-135.6000;0.9320;0.0971;
-135.3000;0.9328;0.0924;
-135.0000;0.9377;0.0924;
-134.7000;0.9353;0.0900;
-134.4000;0.9361;0.0877;
-134.1000;0.9312;0.0734;
-133.8000;0.9337;0.0806;
-133.5000;0.9320;0.0806;
-133.2000;0.9312;0.0806;
-132.9000;0.9312;0.0758;
-132.6000;0.9320;0.0782;
-132.3000;0.9345;0.0711;
-132.0000;0.9320;0.0711;
-131.7000;0.9418;0.0877;
-131.4000;0.9353;0.0806;
-131.1000;0.9345;0.0782;
-130.8000;0.9320;0.0758;
-130.5000;0.9345;0.0758;
-130.2000;0.9353;0.0687;
-129.9000;0.9361;0.0734;
-129.6000;0.9353;0.0734;
-129.3000;0.9353;0.0734;
-129.0000;0.9345;0.0782;
-128.7000;0.9337;0.0829;
-128.4000;0.9377;0.0924;
-128.1000;0.9337;0.0829;
-127.8000;0.9345;0.0877;
-127.5000;0.9361;0.0853;
-127.2000;0.9361;0.0853;
-126.9000;0.9328;0.0829;
-126.6000;0.9377;0.0971;
-126.3000;0.9337;0.0877;
-126.0000;0.9385;0.0971;
-125.7000;0.9369;0.0877;
-125.4000;0.9328;0.0853;
-125.1000;0.9337;0.0877;
-124.8000;0.9280;0.0782;
-124.5000;0.9353;0.1019;
-124.2000;0.9328;0.0971;
-123.9000;0.9320;0.0829;
-123.6000;0.9402;0.0995;
-123.3000;0.9361;0.0900;
-123.0000;0.9361;0.0900;
-122.7000;0.9328;0.0853;
-122.4000;0.9337;0.0877;
-122.1000;0.9337;0.0924;
-121.8000;0.9328;0.0948;
-121.5000;0.9328;0.0877;
-121.2000;0.9320;0.0829;
-120.9000;0.9353;0.0900;
-120.6000;0.9345;0.0853;
-120.3000;0.9328;0.0853;
-120.0000;0.9353;0.0853;
-119.7000;0.9328;0.0829;
-119.4000;0.9337;0.0877;
-119.1000;0.9377;0.0900;
-118.8000;0.9320;0.0758;
-118.5000;0.9337;0.0758;
-118.2000;0.9328;0.0877;
-117.9000;0.9337;0.0924;
-117.6000;0.9328;0.0900;
-117.3000;0.9337;0.0995;
-117.0000;0.9337;0.1066;
-116.7000;0.9328;0.1066;
-116.4000;0.9337;0.1066;
-116.1000;0.9320;0.1090;
-115.8000;0.9353;0.1185;
-115.5000;0.9337;0.1066;
-115.2000;0.9353;0.0995;
-114.9000;0.9328;0.0877;
-114.6000;0.9337;0.0900;
-114.3000;0.9320;0.0853;
-114.0000;0.9328;0.0924;
-113.7000;0.9328;0.0853;
-113.4000;0.9337;0.0900;
-113.1000;0.9353;0.0924;
-112.8000;0.9328;0.0900;
-112.5000;0.9328;0.0877;
-112.2000;0.9345;0.0829;
-111.9000;0.9328;0.0734;
-111.6000;0.9353;0.0806;
-111.3000;0.9337;0.0782;
-111.0000;0.9328;0.0900;
-110.7000;0.9296;0.0829;
-110.4000;0.9353;0.0995;
-110.1000;0.9328;0.0924;
-109.8000;0.9312;0.0924;
-109.5000;0.9337;0.1019;
-109.2000;0.9353;0.1019;
-108.9000;0.9337;0.1042;
-108.6000;0.9337;0.1042;
-108.3000;0.9345;0.1137;
-108.0000;0.9353;0.1185;
-107.7000;0.9328;0.1161;
-107.4000;0.9345;0.1090;
-107.1000;0.9369;0.1185;
-106.8000;0.9361;0.1114;
-106.5000;0.9328;0.0971;
-106.2000;0.9337;0.0924;
-105.9000;0.9320;0.0877;
-105.6000;0.9312;0.0877;
-105.3000;0.9353;0.0995;
-105.0000;0.9369;0.1042;
-104.7000;0.9320;0.0971;
-104.4000;0.9353;0.0995;
-104.1000;0.9345;0.0971;
-103.8000;0.9345;0.0924;
-103.5000;0.9337;0.0924;
-103.2000;0.9353;0.0995;
-102.9000;0.9353;0.1019;
-102.6000;0.9377;0.1066;
-102.3000;0.9345;0.0995;
-102.0000;0.9353;0.1042;
-101.7000;0.9345;0.1019;
-101.4000;0.9345;0.0948;
-101.1000;0.9361;0.0924;
-100.8000;0.9312;0.0877;
-100.5000;0.9337;0.0900;
-100.2000;0.9377;0.0924;
-99.9000;0.9328;0.0853;
-99.6000;0.9345;0.0948;
-99.3000;0.9353;0.0971;
-99.0000;0.9353;0.0948;
-98.7000;0.9328;0.0924;
-98.4000;0.9337;0.0900;
-98.1000;0.9320;0.0900;
-97.8000;0.9328;0.0853;
-97.5000;0.9337;0.0971;
-97.2000;0.9328;0.0995;
-96.9000;0.9320;0.0971;
-96.6000;0.9337;0.1019;
-96.3000;0.9328;0.0948;
-96.0000;0.9328;0.0924;
-95.7000;0.9328;0.0971;
-95.4000;0.9377;0.1137;
-95.1000;0.9345;0.1090;
-94.8000;0.9312;0.1042;
-94.5000;0.9337;0.1042;
-94.2000;0.9345;0.1042;
-93.9000;0.9328;0.1019;
-93.6000;0.9328;0.1019;
-93.3000;0.9345;0.1042;
-93.0000;0.9296;0.0853;
-92.7000;0.9410;0.1114;
-92.4000;0.9337;0.0924;
-92.1000;0.9328;0.0924;
-91.8000;0.9337;0.0853;
-91.5000;0.9328;0.0877;
-91.2000;0.9320;0.0853;
-90.9000;0.9320;0.0734;
-90.6000;0.9320;0.0758;
-90.3000;0.9337;0.0782;
-90.0000;0.9353;0.0948;
-89.7000;0.9361;0.0948;
-89.4000;0.9337;0.0948;
-89.1000;0.9353;0.1019;
-88.8000;0.9353;0.1042;
-88.5000;0.9353;0.0971;
-88.2000;0.9353;0.0853;
-87.9000;0.9296;0.0687;
-87.6000;0.9345;0.0663;
-87.3000;0.9320;0.0545;
-87.0000;0.9328;0.0569;
-86.7000;0.9320;0.0545;
-86.4000;0.9353;0.0592;
-86.1000;0.9271;0.0474;
-85.8000;0.9345;0.0592;
-85.5000;0.9337;0.0758;
-85.2000;0.9337;0.0782;
-84.9000;0.9353;0.0853;
-84.6000;0.9312;0.0829;
-84.3000;0.9328;0.0877;
-84.0000;0.9337;0.0924;
-83.7000;0.9369;0.0948;
-83.4000;0.9337;0.0877;
-83.1000;0.9280;0.0758;
-82.8000;0.9312;0.0900;
-82.5000;0.9345;0.0948;
-82.2000;0.9320;0.0877;
-81.9000;0.9312;0.0900;
-81.6000;0.9320;0.0806;
-81.3000;0.9280;0.0687;
-81.0000;0.9337;0.0877;
-80.7000;0.9337;0.0853;
-80.4000;0.9328;0.0924;
-80.1000;0.9337;0.0948;
-79.8000;0.9361;0.0995;
-79.5000;0.9312;0.0900;
-79.2000;0.9345;0.0995;
-78.9000;0.9328;0.0971;
-78.6000;0.9296;0.0853;
-78.3000;0.9353;0.1066;
-78.0000;0.9337;0.1114;
-77.7000;0.9328;0.1114;
-77.4000;0.9345;0.1161;
-77.1000;0.9353;0.1090;
-76.8000;0.9353;0.0971;
-76.5000;0.9328;0.0924;
-76.2000;0.9369;0.1114;
-75.9000;0.9296;0.0971;
-75.6000;0.9353;0.0948;
-75.3000;0.9328;0.0900;
-75.0000;0.9320;0.0995;
-74.7000;0.9337;0.0995;
-74.4000;0.9353;0.1019;
-74.1000;0.9369;0.1137;
-73.8000;0.9263;0.0924;
-73.5000;0.9353;0.1185;
-73.2000;0.9345;0.1066;
-72.9000;0.9312;0.0924;
-72.6000;0.9337;0.0971;
-72.3000;0.9345;0.0924;
-72.0000;0.9369;0.0948;
-71.7000;0.9337;0.0924;
-71.4000;0.9328;0.0924;
-71.1000;0.9337;0.0948;
-70.8000;0.9328;0.0995;
-70.5000;0.9312;0.0995;
-70.2000;0.9345;0.0995;
-69.9000;0.9345;0.0924;
-69.6000;0.9361;0.0924;
-69.3000;0.9320;0.0877;
-69.0000;0.9337;0.0924;
-68.7000;0.9312;0.0877;
-68.4000;0.9337;0.0971;
-68.1000;0.9345;0.0948;
-67.8000;0.9263;0.0758;
-67.5000;0.9337;0.0971;
-67.2000;0.9385;0.0995;
-66.9000;0.9312;0.0877;
-66.6000;0.9337;0.0877;
-66.3000;0.9337;0.0924;
-66.0000;0.9320;0.0900;
-65.7000;0.9394;0.1066;
-65.4000;0.9337;0.0900;
-65.1000;0.9345;0.0900;
-64.8000;0.9345;0.0924;
-64.5000;0.9345;0.0877;
-64.2000;0.9353;0.0806;
-63.9000;0.9320;0.0829;
-63.6000;0.9320;0.0782;
-63.3000;0.9361;0.0853;
-63.0000;0.9345;0.0734;
-62.7000;0.9345;0.0711;
-62.4000;0.9345;0.0734;
-62.1000;0.9345;0.0806;
-61.8000;0.9337;0.0806;
-61.5000;0.9320;0.0782;
-61.2000;0.9312;0.0734;
-60.9000;0.9345;0.0853;
-60.6000;0.9288;0.0734;
-60.3000;0.9328;0.0782;
-60.0000;0.9337;0.0758;
-59.7000;0.9328;0.0782;
-59.4000;0.9328;0.0806;
-59.1000;0.9328;0.0806;
-58.8000;0.9312;0.0806;
-58.5000;0.9328;0.0829;
-58.2000;0.9320;0.0948;
-57.9000;0.9337;0.0995;
-57.6000;0.9361;0.1019;
-57.3000;0.9345;0.0995;
-57.0000;0.9328;0.0971;
-56.7000;0.9337;0.1042;
-56.4000;0.9263;0.0853;
-56.1000;0.9345;0.0995;
-55.8000;0.9337;0.0995;
-55.5000;0.9353;0.1042;
-55.2000;0.9353;0.0995;
-54.9000;0.9337;0.0948;
-54.6000;0.9337;0.1019;
-54.3000;0.9361;0.0995;
-54.0000;0.9328;0.0924;
-53.7000;0.9345;0.0853;
-53.4000;0.9345;0.0924;
-53.1000;0.9328;0.0853;
-52.8000;0.9320;0.0806;
-52.5000;0.9394;0.0900;
-52.2000;0.9353;0.0758;
-51.9000;0.9345;0.0782;
-51.6000;0.9353;0.0806;
-51.3000;0.9353;0.0829;
-51.0000;0.9328;0.0782;
-50.7000;0.9304;0.0734;
-50.4000;0.9361;0.0853;
-50.1000;0.9337;0.0900;
-49.8000;0.9337;0.0924;
-49.5000;0.9337;0.0924;
-49.2000;0.9361;0.0877;
-48.9000;0.9345;0.0782;
-48.6000;0.9353;0.0806;
-48.3000;0.9353;0.0877;
-48.0000;0.9345;0.0829;
-47.7000;0.9337;0.0687;
-47.4000;0.9361;0.0734;
-47.1000;0.9320;0.0711;
-46.8000;0.9328;0.0782;
-46.5000;0.9337;0.0900;
-46.2000;0.9345;0.0900;
-45.9000;0.9353;0.0948;
-45.6000;0.9369;0.1019;
-45.3000;0.9337;0.0971;
-45.0000;0.9361;0.0971;
-44.7000;0.9337;0.0853;
-44.4000;0.9337;0.0687;
-44.1000;0.9369;0.0758;
-43.8000;0.9353;0.0758;
-43.5000;0.9337;0.0711;
-43.2000;0.9345;0.0734;
-42.9000;0.9385;0.0853;
-42.6000;0.9353;0.0758;
-42.3000;0.9337;0.0758;
-42.0000;0.9337;0.0734;
-41.7000;0.9337;0.0782;
-41.4000;0.9320;0.0758;
-41.1000;0.9337;0.0853;
-40.8000;0.9353;0.0853;
-40.5000;0.9320;0.0829;
-40.2000;0.9345;0.0829;
-39.9000;0.9337;0.0829;
-39.6000;0.9328;0.0806;
-39.3000;0.9328;0.0806;
-39.0000;0.9328;0.0782;
-38.7000;0.9328;0.0877;
-38.4000;0.9361;0.0924;
-38.1000;0.9337;0.0877;
-37.8000;0.9328;0.0900;
-37.5000;0.9361;0.0948;
-37.2000;0.9361;0.0971;
-36.9000;0.9345;0.0924;
-36.6000;0.9280;0.0853;
-36.3000;0.9345;0.0924;
-36.0000;0.9337;0.0877;
-35.7000;0.9328;0.0900;
-35.4000;0.9328;0.0900;
-35.1000;0.9361;0.1019;
-34.8000;0.9337;0.0971;
-34.5000;0.9328;0.0948;
-34.2000;0.9255;0.0877;
-33.9000;0.9353;0.1042;
-33.6000;0.9320;0.1066;
-33.3000;0.9337;0.1066;
-33.0000;0.9320;0.1019;
-32.7000;0.9337;0.1019;
-32.4000;0.9312;0.1019;
-32.1000;0.9320;0.0995;
-31.8000;0.9361;0.1042;
-31.5000;0.9345;0.1090;
-31.2000;0.9369;0.1114;
-30.9000;0.9353;0.1161;
-30.6000;0.9353;0.1114;
-30.3000;0.9328;0.1042;
-30.0000;0.9353;0.1090;
-29.7000;0.9353;0.1019;
-29.4000;0.9337;0.0971;
-29.1000;0.9312;0.0948;
-28.8000;0.9320;0.0924;
-28.5000;0.9353;0.0948;
-28.2000;0.9312;0.0853;
-27.9000;0.9296;0.0829;
-27.6000;0.9320;0.0806;
-27.3000;0.9361;0.0853;
-27.0000;0.9337;0.0829;
-26.7000;0.9377;0.0971;
-26.4000;0.9353;0.0948;
-26.1000;0.9345;0.1042;
-25.8000;0.9361;0.0948;
-25.5000;0.9345;0.1019;
-25.2000;0.9345;0.1114;
-24.9000;0.9337;0.1090;
-24.6000;0.9353;0.0995;
-24.3000;0.9337;0.0948;
-24.0000;0.9328;0.0829;
-23.7000;0.9328;0.0782;
-23.4000;0.9345;0.0782;
-23.1000;0.9353;0.0806;
-22.8000;0.9328;0.0711;
-22.5000;0.9320;0.0687;
-22.2000;0.9337;0.0758;
-21.9000;0.9353;0.0782;
-21.6000;0.9337;0.0734;
-21.3000;0.9328;0.0711;
-21.0000;0.9337;0.0687;
-20.7000;0.9337;0.0687;
-20.4000;0.9377;0.0877;
-20.1000;0.9320;0.0782;
-19.8000;0.9369;0.0829;
-19.5000;0.9353;0.0900;
-19.2000;0.9345;0.0924;
-18.9000;0.9337;0.0877;
-18.6000;0.9328;0.0829;
-18.3000;0.9345;0.0806;
-18.0000;0.9320;0.0806;
-17.7000;0.9353;0.0829;
-17.4000;0.9353;0.0782;
-17.1000;0.9353;0.0711;
-16.8000;0.9361;0.0640;
-16.5000;0.9353;0.0592;
-16.2000;0.9320;0.0616;
-15.9000;0.9320;0.0640;
-15.6000;0.9337;0.0782;
-15.3000;0.9328;0.0711;
-15.0000;0.9328;0.0640;
-14.7000;0.9345;0.0592;
-14.4000;0.9377;0.0640;
-14.1000;0.9353;0.0569;
-13.8000;0.9345;0.0616;
-13.5000;0.9337;0.0711;
-13.2000;0.9337;0.0734;
-12.9000;0.9345;0.0758;
-12.6000;0.9271;0.0592;
-12.3000;0.9328;0.0734;
-12.0000;0.9361;0.0900;
-11.7000;0.9271;0.0782;
-11.4000;0.9296;0.0853;
-11.1000;0.9312;0.0853;
-10.8000;0.9328;0.0829;
-10.5000;0.9345;0.0782;
-10.2000;0.9337;0.0782;
-9.9000;0.9328;0.0758;
-9.6000;0.9328;0.0758;
-9.3000;0.9353;0.0877;
-9.0000;0.9361;0.0877;
-8.7000;0.9345;0.0853;
-8.4000;0.9328;0.0924;
-8.1000;0.9328;0.0900;
-7.8000;0.9402;0.1042;
-7.5000;0.9361;0.0995;
-7.2000;0.9353;0.0995;
-6.9000;0.9328;0.0971;
-6.6000;0.9353;0.0995;
-6.3000;0.9296;0.0829;
-6.0000;0.9255;0.0711;
-5.7000;0.9369;0.0995;
-5.4000;0.9353;0.0995;
-5.1000;0.9320;0.0948;
-4.8000;0.9312;0.0924;
-4.5000;0.9426;0.1279;
-4.2000;0.9345;0.1090;
-3.9000;0.9345;0.1090;
-3.6000;0.9353;0.1042;
-3.3000;0.9345;0.0924;
-3.0000;0.9418;0.1066;
-2.7000;0.9345;0.0806;
-2.4000;0.9296;0.0758;
-2.1000;0.9328;0.0853;
-1.8000;0.9361;0.0948;
-1.5000;0.9328;0.0924;
-1.2000;0.9328;0.0971;
-0.9000;0.9361;0.1066;
-0.6000;0.9345;0.1019;
-0.3000;0.9353;0.0995;
0.0000;0.9353;0.0995;
0.3000;0.9402;0.0806;
0.6000;0.9475;0.1279;
0.9000;0.9532;0.1706;
1.2000;0.9597;0.2085;
1.5000;0.9646;0.2393;
1.8000;0.9687;0.2654;
2.1000;0.9630;0.2606;
2.4000;0.9719;0.2891;
2.7000;0.9752;0.2962;
3.0000;0.9760;0.3175;
3.3000;0.9760;0.3199;
3.6000;0.9776;0.3412;
3.9000;0.9792;0.3483;
4.2000;0.9792;0.3507;
4.5000;0.9801;0.3435;
4.8000;0.9809;0.3435;
5.1000;0.9841;0.3530;
5.4000;0.9841;0.3625;
5.7000;0.9858;0.3720;
6.0000;0.9858;0.3672;
6.3000;0.9874;0.3720;
6.6000;0.9874;0.3767;
6.9000;0.9866;0.3720;
7.2000;0.9866;0.3815;
7.5000;0.9882;0.3909;
7.8000;0.9874;0.3980;
8.1000;0.9874;0.3909;
8.4000;0.9890;0.3909;
8.7000;0.9882;0.3838;
9.0000;0.9890;0.3791;
9.3000;0.9898;0.3791;
9.6000;0.9898;0.3791;
9.9000;0.9906;0.3791;
10.2000;0.9923;0.3744;
10.5000;0.9915;0.3744;
10.8000;0.9906;0.3744;
11.1000;0.9906;0.3744;
11.4000;0.9923;0.3815;
11.7000;0.9915;0.3791;
12.0000;0.9939;0.3838;
12.3000;0.9898;0.3696;
12.6000;0.9939;0.3791;
12.9000;0.9939;0.3815;
13.2000;0.9923;0.3815;
13.5000;0.9906;0.3815;
13.8000;0.9939;0.3886;
14.1000;0.9972;0.3957;
14.4000;0.9955;0.3933;
14.7000;0.9947;0.3886;
15.0000;1.0004;0.4075;
15.3000;0.9955;0.3933;
15.6000;0.9963;0.3909;
15.9000;0.9947;0.3957;
16.2000;0.9972;0.4004;
16.5000;0.9988;0.4028;
16.8000;0.9963;0.4028;
17.1000;0.9947;0.4099;
17.4000;0.9980;0.4170;
17.7000;0.9980;0.4146;
18.0000;0.9972;0.4052;
18.3000;0.9947;0.3909;
18.6000;0.9947;0.3886;
18.9000;0.9963;0.3886;
19.2000;0.9972;0.3886;
19.5000;0.9972;0.3862;
19.8000;0.9972;0.3838;
20.1000;0.9988;0.3838;
20.4000;0.9988;0.3886;
20.7000;0.9980;0.3815;
21.0000;0.9996;0.3838;
21.3000;0.9988;0.3886;
21.6000;0.9988;0.3909;
21.9000;0.9988;0.3933;
22.2000;0.9972;0.3886;
22.5000;0.9996;0.3909;
22.8000;0.9988;0.3909;
23.1000;0.9996;0.3886;
23.4000;0.9996;0.3909;
23.7000;0.9980;0.3886;
24.0000;0.9980;0.3933;
24.3000;0.9988;0.3909;
24.6000;0.9972;0.3933;
24.9000;1.0045;0.4099;
25.2000;0.9980;0.3886;
25.5000;0.9996;0.3957;
25.8000;0.9972;0.4075;
26.1000;0.9980;0.4004;
26.4000;1.0004;0.4052;
26.7000;0.9988;0.4004;
27.0000;0.9988;0.4004;
27.3000;0.9972;0.3957;
27.6000;0.9972;0.3957;
27.9000;0.9988;0.4004;
28.2000;0.9980;0.4099;
28.5000;0.9980;0.4075;
28.8000;0.9988;0.4099;
29.1000;0.9988;0.4075;
29.4000;0.9996;0.4075;
29.7000;0.9980;0.4099;
30.0000;0.9988;0.4194;
30.3000;0.9988;0.4217;
30.6000;1.0037;0.4241;
30.9000;1.0004;0.4146;
31.2000;0.9980;0.4052;
31.5000;1.0004;0.4028;
31.8000;1.0004;0.4004;
32.1000;0.9988;0.4052;
32.4000;0.9980;0.4004;
32.7000;0.9988;0.3980;
33.0000;0.9988;0.4004;
33.3000;0.9963;0.3886;
33.6000;0.9988;0.3957;
33.9000;0.9980;0.4004;
34.2000;0.9996;0.4004;
34.5000;0.9980;0.4028;
34.8000;1.0012;0.4075;
35.1000;1.0004;0.3980;
35.4000;0.9947;0.4028;
35.7000;1.0012;0.4146;
36.0000;0.9996;0.4052;
36.3000;0.9996;0.4028;
36.6000;0.9996;0.4004;
36.9000;1.0012;0.4099;
37.2000;0.9972;0.3957;
37.5000;1.0012;0.4052;
37.8000;1.0020;0.4099;
