time/ms;Fluo/V;P700 deltaI/I x10³;
-199.8000;0.1522;-0.2437;
-199.5000;0.1514;-0.2437;
-199.2000;0.1392;-0.2844;
-198.9000;0.1522;-0.2605;
-198.6000;0.1522;-0.2485;
-198.3000;0.1530;-0.2437;
-198.0000;0.1547;-0.2294;
-197.7000;0.1514;-0.2390;
-197.4000;0.1530;-0.2413;
-197.1000;0.1530;-0.2413;
-196.8000;0.1538;-0.2366;
-196.5000;0.1538;-0.2413;
-196.2000;0.1547;-0.2413;
-195.9000;0.1538;-0.2461;
-195.6000;0.1538;-0.2509;
-195.3000;0.1530;-0.2581;
-195.0000;0.1530;-0.2557;
-194.7000;0.1433;-0.2891;
-194.4000;0.1547;-0.2366;
-194.1000;0.1547;-0.2294;
-193.8000;0.1498;-0.2437;
-193.5000;0.1522;-0.2485;
-193.2000;0.1538;-0.2509;
-192.9000;0.1498;-0.2533;
-192.6000;0.1522;-0.2485;
-192.3000;0.1506;-0.2509;
-192.0000;0.1555;-0.2390;
-191.7000;0.1547;-0.2342;
-191.4000;0.1530;-0.2342;
-191.1000;0.1538;-0.2318;
-190.8000;0.1473;-0.2437;
-190.5000;0.1530;-0.2270;
-190.2000;0.1498;-0.2437;
-189.9000;0.1530;-0.2342;
-189.6000;0.1530;-0.2342;
-189.3000;0.1522;-0.2413;
-189.0000;0.1522;-0.2413;
-188.7000;0.1530;-0.2413;
-188.4000;0.1514;-0.2437;
-188.1000;0.1530;-0.2461;
-187.8000;0.1522;-0.2509;
-187.5000;0.1547;-0.2413;
-187.2000;0.1530;-0.2461;
-186.9000;0.1595;-0.2246;
-186.6000;0.1538;-0.2461;
-186.3000;0.1522;-0.2485;
-186.0000;0.1530;-0.2437;
-185.7000;0.1481;-0.2557;
-185.4000;0.1555;-0.2366;
-185.1000;0.1547;-0.2413;
-184.8000;0.1636;-0.2198;
-184.5000;0.1490;-0.2581;
-184.2000;0.1465;-0.2629;
-183.9000;0.1538;-0.2485;
-183.6000;0.1530;-0.2533;
-183.3000;0.1530;-0.2533;
-183.0000;0.1538;-0.2437;
-182.7000;0.1530;-0.2461;
-182.4000;0.1530;-0.2437;
-182.1000;0.1498;-0.2437;
-181.8000;0.1538;-0.2413;
-181.5000;0.1538;-0.2461;
-181.2000;0.1522;-0.2509;
-180.9000;0.1530;-0.2581;
-180.6000;0.1636;-0.2198;
-180.3000;0.1522;-0.2509;
-180.0000;0.1538;-0.2437;
-179.7000;0.1538;-0.2413;
-179.4000;0.1408;-0.2676;
-179.1000;0.1547;-0.2246;
-178.8000;0.1555;-0.2246;
-178.5000;0.1538;-0.2342;
-178.2000;0.1538;-0.2246;
-177.9000;0.1514;-0.2270;
-177.6000;0.1547;-0.2198;
-177.3000;0.1530;-0.2270;
-177.0000;0.1522;-0.2294;
-176.7000;0.1522;-0.2366;
-176.4000;0.1555;-0.2294;
-176.1000;0.1530;-0.2366;
-175.8000;0.1522;-0.2509;
-175.5000;0.1538;-0.2413;
-175.2000;0.1538;-0.2413;
-174.9000;0.1587;-0.2175;
-174.6000;0.1514;-0.2270;
-174.3000;0.1514;-0.2222;
-174.0000;0.1522;-0.2318;
-173.7000;0.1514;-0.2437;
-173.4000;0.1538;-0.2390;
-173.1000;0.1522;-0.2437;
-172.8000;0.1530;-0.2437;
-172.5000;0.1490;-0.2629;
-172.2000;0.1530;-0.2461;
-171.9000;0.1514;-0.2461;
-171.6000;0.1416;-0.2748;
-171.3000;0.1522;-0.2485;
-171.0000;0.1514;-0.2509;
-170.7000;0.1538;-0.2366;
-170.4000;0.1522;-0.2318;
-170.1000;0.1538;-0.2342;
-169.8000;0.1547;-0.2366;
-169.5000;0.1530;-0.2413;
-169.2000;0.1481;-0.2461;
-168.9000;0.1636;-0.2103;
-168.6000;0.1530;-0.2390;
-168.3000;0.1538;-0.2413;
-168.0000;0.1490;-0.2605;
-167.7000;0.1555;-0.2390;
-167.4000;0.1530;-0.2485;
-167.1000;0.1522;-0.2509;
-166.8000;0.1530;-0.2485;
-166.5000;0.1506;-0.2485;
-166.2000;0.1547;-0.2342;
-165.9000;0.1530;-0.2366;
-165.6000;0.1628;-0.2007;
-165.3000;0.1530;-0.2318;
-165.0000;0.1530;-0.2342;
-164.7000;0.1538;-0.2246;
-164.4000;0.1530;-0.2366;
-164.1000;0.1652;-0.2055;
-163.8000;0.1538;-0.2390;
-163.5000;0.1652;-0.2079;
-163.2000;0.1498;-0.2485;
-162.9000;0.1522;-0.2366;
-162.6000;0.1522;-0.2366;
-162.3000;0.1530;-0.2246;
-162.0000;0.1530;-0.2270;
-161.7000;0.1506;-0.2294;
-161.4000;0.1506;-0.2390;
-161.1000;0.1514;-0.2390;
-160.8000;0.1587;-0.2222;
-160.5000;0.1522;-0.2413;
-160.2000;0.1522;-0.2533;
-159.9000;0.1563;-0.2390;
-159.6000;0.1636;-0.2222;
-159.3000;0.1530;-0.2437;
-159.0000;0.1514;-0.2509;
-158.7000;0.1522;-0.2413;
-158.4000;0.1530;-0.2437;
-158.1000;0.1547;-0.2413;
-157.8000;0.1644;-0.2127;
-157.5000;0.1514;-0.2461;
-157.2000;0.1514;-0.2437;
-156.9000;0.1530;-0.2461;
-156.6000;0.1547;-0.2390;
-156.3000;0.1522;-0.2461;
-156.0000;0.1538;-0.2390;
-155.7000;0.1465;-0.2605;
-155.4000;0.1490;-0.2509;
-155.1000;0.1473;-0.2557;
-154.8000;0.1522;-0.2318;
-154.5000;0.1538;-0.2390;
-154.2000;0.1416;-0.2724;
-153.9000;0.1579;-0.2294;
-153.6000;0.1538;-0.2413;
-153.3000;0.1522;-0.2413;
-153.0000;0.1555;-0.2246;
-152.7000;0.1538;-0.2437;
-152.4000;0.1522;-0.2437;
-152.1000;0.1530;-0.2461;
-151.8000;0.1547;-0.2509;
-151.5000;0.1457;-0.2724;
-151.2000;0.1481;-0.2629;
-150.9000;0.1538;-0.2557;
-150.6000;0.1547;-0.2390;
-150.3000;0.1530;-0.2461;
-150.0000;0.1514;-0.2413;
-149.7000;0.1506;-0.2318;
-149.4000;0.1579;-0.2151;
-149.1000;0.1530;-0.2342;
-148.8000;0.1522;-0.2437;
-148.5000;0.1555;-0.2390;
-148.2000;0.1514;-0.2533;
-147.9000;0.1441;-0.2605;
-147.6000;0.1547;-0.2318;
-147.3000;0.1530;-0.2342;
-147.0000;0.1506;-0.2461;
-146.7000;0.1465;-0.2652;
-146.4000;0.1538;-0.2413;
-146.1000;0.1563;-0.2246;
-145.8000;0.1538;-0.2437;
-145.5000;0.1506;-0.2437;
-145.2000;0.1530;-0.2366;
-144.9000;0.1514;-0.2318;
-144.6000;0.1522;-0.2342;
-144.3000;0.1408;-0.2629;
-144.0000;0.1563;-0.2175;
-143.7000;0.1522;-0.2318;
-143.4000;0.1522;-0.2366;
-143.1000;0.1498;-0.2366;
-142.8000;0.1538;-0.2366;
-142.5000;0.1522;-0.2366;
-142.2000;0.1538;-0.2342;
-141.9000;0.1514;-0.2461;
-141.6000;0.1538;-0.2413;
-141.3000;0.1538;-0.2461;
-141.0000;0.1563;-0.2437;
-140.7000;0.1530;-0.2485;
-140.4000;0.1530;-0.2485;
-140.1000;0.1530;-0.2509;
-139.8000;0.1530;-0.2509;
-139.5000;0.1522;-0.2533;
-139.2000;0.1522;-0.2557;
-138.9000;0.1547;-0.2557;
-138.6000;0.1538;-0.2557;
-138.3000;0.1514;-0.2652;
-138.0000;0.1538;-0.2461;
-137.7000;0.1506;-0.2461;
-137.4000;0.1563;-0.2222;
-137.1000;0.1530;-0.2246;
-136.8000;0.1514;-0.2270;
-136.5000;0.1530;-0.2342;
-136.2000;0.1530;-0.2413;
-135.9000;0.1571;-0.2318;
-135.6000;0.1547;-0.2318;
-135.3000;0.1514;-0.2437;
-135.0000;0.1538;-0.2222;
-134.7000;0.1351;-0.2652;
-134.4000;0.1498;-0.2246;
-134.1000;0.1506;-0.2222;
-133.8000;0.1563;-0.2103;
-133.5000;0.1555;-0.2103;
-133.2000;0.1481;-0.2318;
-132.9000;0.1595;-0.1983;
-132.6000;0.1498;-0.2246;
-132.3000;0.1514;-0.2175;
-132.0000;0.1522;-0.2175;
-131.7000;0.1530;-0.2151;
-131.4000;0.1555;-0.2222;
-131.1000;0.1538;-0.2294;
-130.8000;0.1514;-0.2366;
-130.5000;0.1522;-0.2366;
-130.2000;0.1555;-0.2342;
-129.9000;0.1538;-0.2413;
-129.6000;0.1530;-0.2437;
-129.3000;0.1538;-0.2390;
-129.0000;0.1408;-0.2748;
-128.7000;0.1538;-0.2437;
-128.4000;0.1514;-0.2533;
-128.1000;0.1465;-0.2629;
-127.8000;0.1490;-0.2581;
-127.5000;0.1538;-0.2509;
-127.2000;0.1514;-0.2509;
-126.9000;0.1514;-0.2437;
-126.6000;0.1530;-0.2437;
-126.3000;0.1514;-0.2461;
-126.0000;0.1530;-0.2461;
-125.7000;0.1538;-0.2437;
-125.4000;0.1514;-0.2509;
-125.1000;0.1530;-0.2533;
-124.8000;0.1522;-0.2437;
-124.5000;0.1538;-0.2485;
-124.2000;0.1538;-0.2437;
-123.9000;0.1465;-0.2629;
-123.6000;0.1538;-0.2485;
-123.3000;0.1498;-0.2533;
-123.0000;0.1506;-0.2437;
-122.7000;0.1530;-0.2437;
-122.4000;0.1547;-0.2390;
-122.1000;0.1530;-0.2461;
-121.8000;0.1547;-0.2461;
-121.5000;0.1555;-0.2366;
-121.2000;0.1490;-0.2629;
-120.9000;0.1522;-0.2437;
-120.6000;0.1547;-0.2342;
-120.3000;0.1538;-0.2509;
-120.0000;0.1538;-0.2581;
-119.7000;0.1547;-0.2557;
-119.4000;0.1514;-0.2581;
-119.1000;0.1522;-0.2557;
-118.8000;0.1530;-0.2533;
-118.5000;0.1514;-0.2437;
-118.2000;0.1514;-0.2390;
-117.9000;0.1514;-0.2485;
-117.6000;0.1514;-0.2485;
-117.3000;0.1538;-0.2437;
-117.0000;0.1514;-0.2533;
-116.7000;0.1587;-0.2366;
-116.4000;0.1538;-0.2581;
-116.1000;0.1514;-0.2605;
-115.8000;0.1522;-0.2652;
-115.5000;0.1547;-0.2605;
-115.2000;0.1498;-0.2700;
-114.9000;0.1522;-0.2557;
-114.6000;0.1522;-0.2533;
-114.3000;0.1522;-0.2533;
-114.0000;0.1506;-0.2605;
-113.7000;0.1555;-0.2413;
-113.4000;0.1506;-0.2605;
-113.1000;0.1530;-0.2581;
-112.8000;0.1555;-0.2485;
-112.5000;0.1547;-0.2461;
-112.2000;0.1498;-0.2581;
-111.9000;0.1530;-0.2533;
-111.6000;0.1563;-0.2390;
-111.3000;0.1506;-0.2509;
-111.0000;0.1416;-0.2676;
-110.7000;0.1579;-0.2270;
-110.4000;0.1538;-0.2342;
-110.1000;0.1522;-0.2366;
-109.8000;0.1579;-0.2318;
-109.5000;0.1555;-0.2413;
-109.2000;0.1530;-0.2437;
-108.9000;0.1538;-0.2485;
-108.6000;0.1498;-0.2581;
-108.3000;0.1595;-0.2294;
-108.0000;0.1506;-0.2509;
-107.7000;0.1490;-0.2533;
-107.4000;0.1522;-0.2413;
-107.1000;0.1530;-0.2461;
-106.8000;0.1522;-0.2461;
-106.5000;0.1514;-0.2461;
-106.2000;0.1416;-0.2772;
-105.9000;0.1563;-0.2318;
-105.6000;0.1571;-0.2294;
-105.3000;0.1547;-0.2294;
-105.0000;0.1538;-0.2342;
-104.7000;0.1522;-0.2294;
-104.4000;0.1538;-0.2342;
-104.1000;0.1563;-0.2246;
-103.8000;0.1530;-0.2342;
-103.5000;0.1392;-0.2629;
-103.2000;0.1547;-0.2318;
-102.9000;0.1506;-0.2413;
-102.6000;0.1530;-0.2390;
-102.3000;0.1498;-0.2485;
-102.0000;0.1514;-0.2437;
-101.7000;0.1530;-0.2366;
-101.4000;0.1473;-0.2437;
-101.1000;0.1514;-0.2294;
-100.8000;0.1514;-0.2342;
-100.5000;0.1530;-0.2437;
-100.2000;0.1514;-0.2509;
-99.9000;0.1473;-0.2533;
-99.6000;0.1547;-0.2413;
-99.3000;0.1538;-0.2461;
-99.0000;0.1530;-0.2437;
-98.7000;0.1555;-0.2342;
-98.4000;0.1522;-0.2390;
-98.1000;0.1563;-0.2294;
-97.8000;0.1555;-0.2366;
-97.5000;0.1530;-0.2509;
-97.2000;0.1449;-0.2629;
-96.9000;0.1481;-0.2557;
-96.6000;0.1514;-0.2461;
-96.3000;0.1530;-0.2413;
-96.0000;0.1530;-0.2413;
-95.7000;0.1506;-0.2509;
-95.4000;0.1530;-0.2461;
-95.1000;0.1555;-0.2342;
-94.8000;0.1612;-0.2222;
-94.5000;0.1530;-0.2413;
-94.2000;0.1538;-0.2413;
-93.9000;0.1555;-0.2318;
-93.6000;0.1530;-0.2390;
-93.3000;0.1530;-0.2366;
-93.0000;0.1522;-0.2437;
-92.7000;0.1538;-0.2366;
-92.4000;0.1506;-0.2390;
-92.1000;0.1522;-0.2342;
-91.8000;0.1530;-0.2342;
-91.5000;0.1579;-0.2175;
-91.2000;0.1555;-0.2294;
-90.9000;0.1538;-0.2222;
-90.6000;0.1514;-0.2294;
-90.3000;0.1506;-0.2318;
-90.0000;0.1522;-0.2294;
-89.7000;0.1555;-0.2151;
-89.4000;0.1498;-0.2222;
-89.1000;0.1530;-0.2198;
-88.8000;0.1538;-0.2246;
-88.5000;0.1538;-0.2294;
-88.2000;0.1538;-0.2342;
-87.9000;0.1514;-0.2485;
-87.6000;0.1530;-0.2509;
-87.3000;0.1514;-0.2485;
-87.0000;0.1587;-0.2318;
-86.7000;0.1522;-0.2557;
-86.4000;0.1490;-0.2676;
-86.1000;0.1514;-0.2676;
-85.8000;0.1555;-0.2581;
-85.5000;0.1563;-0.2581;
-85.2000;0.1481;-0.2652;
-84.9000;0.1498;-0.2652;
-84.6000;0.1538;-0.2485;
-84.3000;0.1547;-0.2413;
-84.0000;0.1538;-0.2437;
-83.7000;0.1547;-0.2390;
-83.4000;0.1547;-0.2366;
-83.1000;0.1538;-0.2413;
-82.8000;0.1522;-0.2437;
-82.5000;0.1538;-0.2461;
-82.2000;0.1538;-0.2437;
-81.9000;0.1587;-0.2342;
-81.6000;0.1522;-0.2557;
-81.3000;0.1522;-0.2390;
-81.0000;0.1571;-0.2270;
-80.7000;0.1506;-0.2413;
-80.4000;0.1506;-0.2366;
-80.1000;0.1555;-0.2175;
-79.8000;0.1522;-0.2222;
-79.5000;0.1538;-0.2222;
-79.2000;0.1506;-0.2294;
-78.9000;0.1473;-0.2342;
-78.6000;0.1473;-0.2437;
-78.3000;0.1547;-0.2342;
-78.0000;0.1522;-0.2318;
-77.7000;0.1571;-0.2103;
-77.4000;0.1530;-0.2175;
-77.1000;0.1530;-0.2246;
-76.8000;0.1530;-0.2222;
-76.5000;0.1538;-0.2175;
-76.2000;0.1522;-0.2175;
-75.9000;0.1538;-0.2198;
-75.6000;0.1547;-0.2175;
-75.3000;0.1514;-0.2342;
-75.0000;0.1490;-0.2413;
-74.7000;0.1530;-0.2366;
-74.4000;0.1538;-0.2342;
-74.1000;0.1506;-0.2461;
-73.8000;0.1506;-0.2461;
-73.5000;0.1530;-0.2390;
-73.2000;0.1579;-0.2318;
-72.9000;0.1514;-0.2437;
-72.6000;0.1522;-0.2437;
-72.3000;0.1530;-0.2413;
-72.0000;0.1506;-0.2390;
-71.7000;0.1498;-0.2366;
-71.4000;0.1522;-0.2342;
-71.1000;0.1506;-0.2390;
-70.8000;0.1522;-0.2390;
-70.5000;0.1522;-0.2342;
-70.2000;0.1522;-0.2413;
-69.9000;0.1514;-0.2461;
-69.6000;0.1547;-0.2390;
-69.3000;0.1514;-0.2390;
-69.0000;0.1530;-0.2318;
-68.7000;0.1522;-0.2366;
-68.4000;0.1555;-0.2270;
-68.1000;0.1522;-0.2342;
-67.8000;0.1522;-0.2390;
-67.5000;0.1530;-0.2461;
-67.2000;0.1530;-0.2413;
-66.9000;0.1522;-0.2413;
-66.6000;0.1522;-0.2366;
-66.3000;0.1538;-0.2366;
-66.0000;0.1547;-0.2294;
-65.7000;0.1530;-0.2318;
-65.4000;0.1563;-0.2294;
-65.1000;0.1538;-0.2294;
-64.8000;0.1514;-0.2318;
-64.5000;0.1555;-0.2222;
-64.2000;0.1490;-0.2318;
-63.9000;0.1522;-0.2198;
-63.6000;0.1514;-0.2222;
-63.3000;0.1425;-0.2413;
-63.0000;0.1538;-0.2222;
-62.7000;0.1530;-0.2294;
-62.4000;0.1514;-0.2390;
-62.1000;0.1644;-0.2055;
-61.8000;0.1514;-0.2366;
-61.5000;0.1538;-0.2318;
-61.2000;0.1530;-0.2270;
-60.9000;0.1506;-0.2366;
-60.6000;0.1506;-0.2294;
-60.3000;0.1522;-0.2198;
-60.0000;0.1547;-0.2175;
-59.7000;0.1530;-0.2222;
-59.4000;0.1522;-0.2270;
-59.1000;0.1530;-0.2246;
-58.8000;0.1547;-0.2246;
-58.5000;0.1506;-0.2342;
-58.2000;0.1514;-0.2390;
-57.9000;0.1506;-0.2390;
-57.6000;0.1490;-0.2413;
-57.3000;0.1530;-0.2366;
-57.0000;0.1530;-0.2390;
-56.7000;0.1530;-0.2366;
-56.4000;0.1604;-0.2175;
-56.1000;0.1522;-0.2413;
-55.8000;0.1530;-0.2366;
-55.5000;0.1514;-0.2366;
-55.2000;0.1433;-0.2557;
-54.9000;0.1522;-0.2222;
-54.6000;0.1514;-0.2342;
-54.3000;0.1506;-0.2270;
-54.0000;0.1522;-0.2127;
-53.7000;0.1530;-0.2103;
-53.4000;0.1514;-0.2151;
-53.1000;0.1522;-0.2127;
-52.8000;0.1506;-0.2222;
-52.5000;0.1555;-0.2079;
-52.2000;0.1547;-0.2175;
-51.9000;0.1514;-0.2198;
-51.6000;0.1514;-0.2175;
-51.3000;0.1522;-0.2079;
-51.0000;0.1522;-0.2127;
-50.7000;0.1530;-0.2055;
-50.4000;0.1538;-0.2151;
-50.1000;0.1514;-0.2246;
-49.8000;0.1530;-0.2246;
-49.5000;0.1473;-0.2461;
-49.2000;0.1522;-0.2413;
-48.9000;0.1547;-0.2342;
-48.6000;0.1547;-0.2318;
-48.3000;0.1522;-0.2390;
-48.0000;0.1514;-0.2485;
-47.7000;0.1742;-0.1816;
-47.4000;0.1547;-0.2342;
-47.1000;0.1555;-0.2246;
-46.8000;0.1530;-0.2222;
-46.5000;0.1538;-0.2198;
-46.2000;0.1538;-0.2175;
-45.9000;0.1547;-0.2198;
-45.6000;0.1522;-0.2318;
-45.3000;0.1530;-0.2270;
-45.0000;0.1547;-0.2175;
-44.7000;0.1514;-0.2342;
-44.4000;0.1522;-0.2246;
-44.1000;0.1498;-0.2390;
-43.8000;0.1522;-0.2318;
-43.5000;0.1514;-0.2294;
-43.2000;0.1530;-0.2270;
-42.9000;0.1522;-0.2294;
-42.6000;0.1547;-0.2294;
-42.3000;0.1490;-0.2437;
-42.0000;0.1538;-0.2413;
-41.7000;0.1498;-0.2605;
-41.4000;0.1538;-0.2461;
-41.1000;0.1530;-0.2461;
-40.8000;0.1571;-0.2390;
-40.5000;0.1514;-0.2342;
-40.2000;0.1514;-0.2318;
-39.9000;0.1530;-0.2294;
-39.6000;0.1530;-0.2246;
-39.3000;0.1490;-0.2366;
-39.0000;0.1506;-0.2294;
-38.7000;0.1498;-0.2366;
-38.4000;0.1514;-0.2342;
-38.1000;0.1465;-0.2413;
-37.8000;0.1514;-0.2270;
-37.5000;0.1522;-0.2342;
-37.2000;0.1465;-0.2437;
-36.9000;0.1538;-0.2246;
-36.6000;0.1506;-0.2222;
-36.3000;0.1449;-0.2461;
-36.0000;0.1522;-0.2318;
-35.7000;0.1547;-0.2342;
-35.4000;0.1555;-0.2151;
-35.1000;0.1522;-0.2222;
-34.8000;0.1522;-0.2198;
-34.5000;0.1490;-0.2222;
-34.2000;0.1530;-0.2198;
-33.9000;0.1530;-0.2222;
-33.6000;0.1530;-0.2151;
-33.3000;0.1514;-0.2175;
-33.0000;0.1481;-0.2246;
-32.7000;0.1506;-0.2175;
-32.4000;0.1538;-0.2007;
-32.1000;0.1530;-0.2103;
-31.8000;0.1522;-0.2198;
-31.5000;0.1530;-0.2175;
-31.2000;0.1473;-0.2151;
-30.9000;0.1571;-0.1888;
-30.6000;0.1514;-0.2103;
-30.3000;0.1522;-0.2151;
-30.0000;0.1530;-0.2222;
-29.7000;0.1538;-0.2246;
-29.4000;0.1514;-0.2390;
-29.1000;0.1441;-0.2605;
-28.8000;0.1547;-0.2342;
-28.5000;0.1538;-0.2390;
-28.2000;0.1547;-0.2366;
-27.9000;0.1522;-0.2437;
-27.6000;0.1514;-0.2509;
-27.3000;0.1514;-0.2533;
-27.0000;0.1514;-0.2629;
-26.7000;0.1538;-0.2533;
-26.4000;0.1522;-0.2533;
-26.1000;0.1498;-0.2509;
-25.8000;0.1538;-0.2270;
-25.5000;0.1498;-0.2366;
-25.2000;0.1547;-0.2294;
-24.9000;0.1465;-0.2533;
-24.6000;0.1506;-0.2342;
-24.3000;0.1555;-0.2270;
-24.0000;0.1563;-0.2198;
-23.7000;0.1547;-0.2246;
-23.4000;0.1530;-0.2294;
-23.1000;0.1506;-0.2366;
-22.8000;0.1530;-0.2318;
-22.5000;0.1514;-0.2342;
-22.2000;0.1522;-0.2366;
-21.9000;0.1530;-0.2390;
-21.6000;0.1522;-0.2390;
-21.3000;0.1490;-0.2437;
-21.0000;0.1530;-0.2294;
-20.7000;0.1530;-0.2294;
-20.4000;0.1522;-0.2294;
-20.1000;0.1530;-0.2318;
-19.8000;0.1530;-0.2294;
-19.5000;0.1538;-0.2270;
-19.2000;0.1514;-0.2342;
-18.9000;0.1555;-0.2198;
-18.6000;0.1506;-0.2270;
-18.3000;0.1530;-0.2198;
-18.0000;0.1522;-0.2198;
-17.7000;0.1595;-0.2055;
-17.4000;0.1538;-0.2342;
-17.1000;0.1522;-0.2461;
-16.8000;0.1620;-0.2198;
-16.5000;0.1555;-0.2485;
-16.2000;0.1538;-0.2557;
-15.9000;0.1522;-0.2581;
-15.6000;0.1473;-0.2676;
-15.3000;0.1514;-0.2533;
-15.0000;0.1473;-0.2629;
-14.7000;0.1547;-0.2390;
-14.4000;0.1449;-0.2629;
-14.1000;0.1473;-0.2485;
-13.8000;0.1498;-0.2533;
-13.5000;0.1530;-0.2413;
-13.2000;0.1571;-0.2151;
-12.9000;0.1490;-0.2294;
-12.6000;0.1514;-0.2198;
-12.3000;0.1522;-0.2246;
-12.0000;0.1530;-0.2175;
-11.7000;0.1555;-0.2198;
-11.4000;0.1457;-0.2437;
-11.1000;0.1425;-0.2557;
-10.8000;0.1538;-0.2270;
-10.5000;0.1433;-0.2581;
-10.2000;0.1522;-0.2318;
-9.9000;0.1441;-0.2485;
-9.6000;0.1563;-0.2175;
-9.3000;0.1514;-0.2366;
-9.0000;0.1514;-0.2222;
-8.7000;0.1595;-0.1959;
-8.4000;0.1604;-0.1983;
-8.1000;0.1506;-0.2175;
-7.8000;0.1514;-0.2198;
-7.5000;0.1530;-0.2079;
-7.2000;0.1522;-0.2175;
-6.9000;0.1522;-0.2222;
-6.6000;0.1514;-0.2270;
-6.3000;0.1612;-0.1959;
-6.0000;0.1555;-0.2079;
-5.7000;0.1547;-0.2246;
-5.4000;0.1506;-0.2294;
-5.1000;0.1457;-0.2437;
-4.8000;0.1514;-0.2413;
-4.5000;0.1514;-0.2366;
-4.2000;0.1571;-0.2198;
-3.9000;0.1514;-0.2413;
-3.6000;0.1587;-0.2175;
-3.3000;0.1514;-0.2318;
-3.0000;0.1449;-0.2461;
-2.7000;0.1604;-0.2031;
-2.4000;0.1538;-0.2246;
-2.1000;0.1538;-0.2246;
-1.8000;0.1547;-0.2270;
-1.5000;0.1498;-0.2366;
-1.2000;0.1514;-0.2390;
-0.9000;0.1538;-0.2270;
-0.6000;0.1538;-0.2151;
-0.3000;0.1563;-0.2079;
0.0000;0.1563;-0.2079;
0.3000;0.1490;-0.2461;
0.6000;0.1530;-0.2103;
0.9000;0.1538;-0.1936;
1.2000;0.1555;-0.1864;
1.5000;0.1547;-0.1721;
1.8000;0.1563;-0.1649;
2.1000;0.1522;-0.1673;
2.4000;0.1555;-0.1529;
2.7000;0.1547;-0.1529;
3.0000;0.1555;-0.1314;
3.3000;0.1579;-0.1195;
3.6000;0.1547;-0.1195;
3.9000;0.1579;-0.1028;
4.2000;0.1563;-0.1099;
4.5000;0.1595;-0.1075;
4.8000;0.1547;-0.1219;
5.1000;0.1587;-0.1051;
5.4000;0.1555;-0.1147;
5.7000;0.1563;-0.1147;
6.0000;0.1555;-0.1147;
6.3000;0.1563;-0.1099;
6.6000;0.1498;-0.1338;
6.9000;0.1555;-0.1243;
7.2000;0.1604;-0.0932;
7.5000;0.1538;-0.1171;
7.8000;0.1579;-0.0932;
8.1000;0.1563;-0.1051;
8.4000;0.1490;-0.1219;
8.7000;0.1473;-0.1266;
9.0000;0.1579;-0.1099;
9.3000;0.1644;-0.0980;
9.6000;0.1457;-0.1482;
9.9000;0.1490;-0.1410;
10.2000;0.1563;-0.1219;
10.5000;0.1530;-0.1338;
10.8000;0.1579;-0.1219;
11.1000;0.1587;-0.1243;
11.4000;0.1538;-0.1219;
11.7000;0.1547;-0.1243;
12.0000;0.1547;-0.1386;
12.3000;0.1555;-0.1362;
12.6000;0.1595;-0.1195;
12.9000;0.1522;-0.1338;
13.2000;0.1514;-0.1266;
13.5000;0.1563;-0.1075;
13.8000;0.1555;-0.1028;
14.1000;0.1555;-0.1051;
14.4000;0.1555;-0.1004;
14.7000;0.1555;-0.1028;
15.0000;0.1563;-0.0908;
15.3000;0.1530;-0.1051;
15.6000;0.1555;-0.0980;
15.9000;0.1628;-0.0812;
16.2000;0.1514;-0.1075;
16.5000;0.1555;-0.1004;
16.8000;0.1522;-0.1099;
17.1000;0.1563;-0.1075;
17.4000;0.1555;-0.1075;
17.7000;0.1538;-0.1171;
18.0000;0.1555;-0.1028;
18.3000;0.1514;-0.1099;
18.6000;0.1538;-0.1004;
18.9000;0.1530;-0.0980;
19.2000;0.1538;-0.0932;
19.5000;0.1571;-0.0932;
19.8000;0.1555;-0.1051;
20.1000;0.1547;-0.1123;
20.4000;0.1547;-0.1123;
20.7000;0.1530;-0.1099;
21.0000;0.1530;-0.1147;
21.3000;0.1547;-0.1099;
21.6000;0.1547;-0.1075;
21.9000;0.1547;-0.0956;
22.2000;0.1555;-0.0980;
22.5000;0.1538;-0.0956;
22.8000;0.1506;-0.1028;
23.1000;0.1555;-0.0908;
23.4000;0.1547;-0.0980;
23.7000;0.1563;-0.0884;
24.0000;0.1547;-0.0884;
24.3000;0.1547;-0.0932;
24.6000;0.1555;-0.0956;
24.9000;0.1563;-0.0956;
25.2000;0.1563;-0.1028;
25.5000;0.1538;-0.1004;
25.8000;0.1563;-0.0956;
26.1000;0.1538;-0.0956;
26.4000;0.1522;-0.0812;
26.7000;0.1530;-0.0812;
27.0000;0.1538;-0.0789;
27.3000;0.1555;-0.0717;
27.6000;0.1506;-0.0932;
27.9000;0.1571;-0.0765;
28.2000;0.1530;-0.0860;
