time/ms;Fluo/V;P700 deltaI/I x10³;
-199.8000;0.1498;-0.0789;
-199.5000;0.1498;-0.0836;
-199.2000;0.1506;-0.0908;
-198.9000;0.1514;-0.0860;
-198.6000;0.1514;-0.0884;
-198.3000;0.1506;-0.0932;
-198.0000;0.1506;-0.0908;
-197.7000;0.1490;-0.0956;
-197.4000;0.1506;-0.0908;
-197.1000;0.1522;-0.0908;
-196.8000;0.1392;-0.1219;
-196.5000;0.1481;-0.0980;
-196.2000;0.1498;-0.1004;
-195.9000;0.1530;-0.1004;
-195.6000;0.1498;-0.1099;
-195.3000;0.1514;-0.1123;
-195.0000;0.1506;-0.1195;
-194.7000;0.1514;-0.1195;
-194.4000;0.1506;-0.1147;
-194.1000;0.1498;-0.1123;
-193.8000;0.1530;-0.1075;
-193.5000;0.1490;-0.1219;
-193.2000;0.1506;-0.1219;
-192.9000;0.1481;-0.1266;
-192.6000;0.1514;-0.1195;
-192.3000;0.1522;-0.1123;
-192.0000;0.1514;-0.1099;
-191.7000;0.1514;-0.1147;
-191.4000;0.1514;-0.1051;
-191.1000;0.1522;-0.1099;
-190.8000;0.1522;-0.1075;
-190.5000;0.1498;-0.1075;
-190.2000;0.1490;-0.1075;
-189.9000;0.1514;-0.1028;
-189.6000;0.1498;-0.1051;
-189.3000;0.1530;-0.0956;
-189.0000;0.1490;-0.1051;
-188.7000;0.1498;-0.1099;
-188.4000;0.1530;-0.1004;
-188.1000;0.1490;-0.1099;
-187.8000;0.1490;-0.1099;
-187.5000;0.1522;-0.1051;
-187.2000;0.1514;-0.1099;
-186.9000;0.1498;-0.1123;
-186.6000;0.1490;-0.1099;
-186.3000;0.1506;-0.1075;
-186.0000;0.1498;-0.1099;
-185.7000;0.1530;-0.1004;
-185.4000;0.1522;-0.1028;
-185.1000;0.1506;-0.1004;
-184.8000;0.1433;-0.1243;
-184.5000;0.1530;-0.0980;
-184.2000;0.1433;-0.1195;
-183.9000;0.1514;-0.0980;
-183.6000;0.1522;-0.0884;
-183.3000;0.1538;-0.0789;
-183.0000;0.1498;-0.0836;
-182.7000;0.1498;-0.0812;
-182.4000;0.1498;-0.0860;
-182.1000;0.1498;-0.0884;
-181.8000;0.1490;-0.0884;
-181.5000;0.1490;-0.0932;
-181.2000;0.1498;-0.0908;
-180.9000;0.1522;-0.0860;
-180.6000;0.1506;-0.0884;
-180.3000;0.1506;-0.0956;
-180.0000;0.1522;-0.0908;
-179.7000;0.1506;-0.0932;
-179.4000;0.1498;-0.0956;
-179.1000;0.1538;-0.0884;
-178.8000;0.1514;-0.0980;
-178.5000;0.1514;-0.0980;
-178.2000;0.1579;-0.0860;
-177.9000;0.1530;-0.0884;
-177.6000;0.1481;-0.1004;
-177.3000;0.1498;-0.1028;
-177.0000;0.1555;-0.0836;
-176.7000;0.1514;-0.0908;
-176.4000;0.1547;-0.0812;
-176.1000;0.1490;-0.0884;
-175.8000;0.1571;-0.0645;
-175.5000;0.1506;-0.0836;
-175.2000;0.1587;-0.0717;
-174.9000;0.1514;-0.0908;
-174.6000;0.1514;-0.0884;
-174.3000;0.1514;-0.0932;
-174.0000;0.1530;-0.0836;
-173.7000;0.1490;-0.1004;
-173.4000;0.1514;-0.1028;
-173.1000;0.1506;-0.0956;
-172.8000;0.1490;-0.1075;
-172.5000;0.1498;-0.1051;
-172.2000;0.1481;-0.1171;
-171.9000;0.1506;-0.1028;
-171.6000;0.1506;-0.0980;
-171.3000;0.1490;-0.1004;
-171.0000;0.1522;-0.0884;
-170.7000;0.1530;-0.0860;
-170.4000;0.1498;-0.0932;
-170.1000;0.1506;-0.0860;
-169.8000;0.1481;-0.0956;
-169.5000;0.1563;-0.0693;
-169.2000;0.1490;-0.0884;
-168.9000;0.1514;-0.0812;
-168.6000;0.1555;-0.0669;
-168.3000;0.1473;-0.0932;
-168.0000;0.1506;-0.0932;
-167.7000;0.1522;-0.0908;
-167.4000;0.1506;-0.1051;
-167.1000;0.1514;-0.1004;
-166.8000;0.1514;-0.0956;
-166.5000;0.1506;-0.1004;
-166.2000;0.1522;-0.1004;
-165.9000;0.1498;-0.1051;
-165.6000;0.1498;-0.1028;
-165.3000;0.1506;-0.1028;
-165.0000;0.1522;-0.0980;
-164.7000;0.1457;-0.1123;
-164.4000;0.1506;-0.1028;
-164.1000;0.1514;-0.1099;
-163.8000;0.1498;-0.1171;
-163.5000;0.1506;-0.1171;
-163.2000;0.1506;-0.1171;
-162.9000;0.1506;-0.1099;
-162.6000;0.1522;-0.1004;
-162.3000;0.1506;-0.1051;
-162.0000;0.1506;-0.1123;
-161.7000;0.1555;-0.0932;
-161.4000;0.1506;-0.0980;
-161.1000;0.1441;-0.1123;
-160.8000;0.1441;-0.1195;
-160.5000;0.1490;-0.1028;
-160.2000;0.1498;-0.1075;
-159.9000;0.1514;-0.1123;
-159.6000;0.1522;-0.1147;
-159.3000;0.1498;-0.1195;
-159.0000;0.1547;-0.0980;
-158.7000;0.1514;-0.1051;
-158.4000;0.1530;-0.1004;
-158.1000;0.1514;-0.1075;
-157.8000;0.1506;-0.0980;
-157.5000;0.1514;-0.1051;
-157.2000;0.1506;-0.1123;
-156.9000;0.1522;-0.1099;
-156.6000;0.1514;-0.1123;
-156.3000;0.1490;-0.1147;
-156.0000;0.1555;-0.1004;
-155.7000;0.1481;-0.1219;
-155.4000;0.1644;-0.0860;
-155.1000;0.1522;-0.1243;
-154.8000;0.1538;-0.1171;
-154.5000;0.1506;-0.1147;
-154.2000;0.1579;-0.0908;
-153.9000;0.1481;-0.1195;
-153.6000;0.1514;-0.1099;
-153.3000;0.1547;-0.0980;
-153.0000;0.1498;-0.1028;
-152.7000;0.1481;-0.1075;
-152.4000;0.1514;-0.1075;
-152.1000;0.1506;-0.1028;
-151.8000;0.1506;-0.1004;
-151.5000;0.1506;-0.1051;
-151.2000;0.1514;-0.1004;
-150.9000;0.1538;-0.1099;
-150.6000;0.1498;-0.1195;
-150.3000;0.1498;-0.1219;
-150.0000;0.1530;-0.1099;
-149.7000;0.1490;-0.1195;
-149.4000;0.1481;-0.1243;
-149.1000;0.1522;-0.1028;
-148.8000;0.1490;-0.1051;
-148.5000;0.1506;-0.1051;
-148.2000;0.1522;-0.1099;
-147.9000;0.1490;-0.1147;
-147.6000;0.1449;-0.1219;
-147.3000;0.1506;-0.1123;
-147.0000;0.1522;-0.1075;
-146.7000;0.1498;-0.1123;
-146.4000;0.1555;-0.0980;
-146.1000;0.1522;-0.1123;
-145.8000;0.1514;-0.1147;
-145.5000;0.1384;-0.1458;
-145.2000;0.1416;-0.1362;
-144.9000;0.1506;-0.1004;
-144.6000;0.1563;-0.0932;
-144.3000;0.1522;-0.1171;
-144.0000;0.1498;-0.1243;
-143.7000;0.1457;-0.1386;
-143.4000;0.1506;-0.1219;
-143.1000;0.1522;-0.1171;
-142.8000;0.1506;-0.1195;
-142.5000;0.1506;-0.1219;
-142.2000;0.1571;-0.1075;
-141.9000;0.1514;-0.1243;
-141.6000;0.1522;-0.1314;
-141.3000;0.1498;-0.1410;
-141.0000;0.1514;-0.1314;
-140.7000;0.1538;-0.1123;
-140.4000;0.1514;-0.1195;
-140.1000;0.1506;-0.1219;
-139.8000;0.1506;-0.1171;
-139.5000;0.1506;-0.1004;
-139.2000;0.1522;-0.1004;
-138.9000;0.1498;-0.1123;
-138.6000;0.1465;-0.1243;
-138.3000;0.1522;-0.1123;
-138.0000;0.1612;-0.0836;
-137.7000;0.1620;-0.0812;
-137.4000;0.1506;-0.1099;
-137.1000;0.1547;-0.1004;
-136.8000;0.1506;-0.1099;
-136.5000;0.1400;-0.1410;
-136.2000;0.1481;-0.1075;
-135.9000;0.1587;-0.0717;
-135.6000;0.1506;-0.1028;
-135.3000;0.1506;-0.1004;
-135.0000;0.1514;-0.1028;
-134.7000;0.1514;-0.1028;
-134.4000;0.1514;-0.1051;
-134.1000;0.1522;-0.1075;
-133.8000;0.1555;-0.0980;
-133.5000;0.1498;-0.1075;
-133.2000;0.1490;-0.1099;
-132.9000;0.1514;-0.1004;
-132.6000;0.1498;-0.1051;
-132.3000;0.1547;-0.0956;
-132.0000;0.1506;-0.1171;
-131.7000;0.1538;-0.1171;
-131.4000;0.1514;-0.1243;
-131.1000;0.1506;-0.1243;
-130.8000;0.1522;-0.1219;
-130.5000;0.1530;-0.1123;
-130.2000;0.1522;-0.1123;
-129.9000;0.1530;-0.1123;
-129.6000;0.1514;-0.1123;
-129.3000;0.1457;-0.1338;
-129.0000;0.1465;-0.1195;
-128.7000;0.1473;-0.1171;
-128.4000;0.1498;-0.1075;
-128.1000;0.1522;-0.0932;
-127.8000;0.1490;-0.0980;
-127.5000;0.1498;-0.1051;
-127.2000;0.1498;-0.1123;
-126.9000;0.1514;-0.1075;
-126.6000;0.1498;-0.1099;
-126.3000;0.1522;-0.1171;
-126.0000;0.1498;-0.1243;
-125.7000;0.1514;-0.1195;
-125.4000;0.1555;-0.1171;
-125.1000;0.1522;-0.1290;
-124.8000;0.1563;-0.1219;
-124.5000;0.1498;-0.1338;
-124.2000;0.1506;-0.1338;
-123.9000;0.1514;-0.1338;
-123.6000;0.1465;-0.1482;
-123.3000;0.1481;-0.1362;
-123.0000;0.1498;-0.1386;
-122.7000;0.1498;-0.1314;
-122.4000;0.1498;-0.1386;
-122.1000;0.1498;-0.1338;
-121.8000;0.1579;-0.1147;
-121.5000;0.1490;-0.1338;
-121.2000;0.1522;-0.1266;
-120.9000;0.1490;-0.1362;
-120.6000;0.1490;-0.1362;
-120.3000;0.1514;-0.1171;
-120.0000;0.1498;-0.1314;
-119.7000;0.1530;-0.1243;
-119.4000;0.1490;-0.1338;
-119.1000;0.1473;-0.1458;
-118.8000;0.1514;-0.1290;
-118.5000;0.1514;-0.1314;
-118.2000;0.1441;-0.1505;
-117.9000;0.1498;-0.1386;
-117.6000;0.1514;-0.1410;
-117.3000;0.1506;-0.1362;
-117.0000;0.1522;-0.1266;
-116.7000;0.1538;-0.1219;
-116.4000;0.1473;-0.1290;
-116.1000;0.1587;-0.1004;
-115.8000;0.1514;-0.1195;
-115.5000;0.1587;-0.0980;
-115.2000;0.1555;-0.1051;
-114.9000;0.1441;-0.1243;
-114.6000;0.1490;-0.1147;
-114.3000;0.1498;-0.1147;
-114.0000;0.1441;-0.1362;
-113.7000;0.1644;-0.0884;
-113.4000;0.1530;-0.1195;
-113.1000;0.1522;-0.1219;
-112.8000;0.1490;-0.1195;
-112.5000;0.1498;-0.1171;
-112.2000;0.1530;-0.1051;
-111.9000;0.1514;-0.1147;
-111.6000;0.1498;-0.1195;
-111.3000;0.1498;-0.1171;
-111.0000;0.1506;-0.1266;
-110.7000;0.1538;-0.1290;
-110.4000;0.1514;-0.1266;
-110.1000;0.1514;-0.1266;
-109.8000;0.1522;-0.1171;
-109.5000;0.1522;-0.1123;
-109.2000;0.1538;-0.1051;
-108.9000;0.1522;-0.0980;
-108.6000;0.1514;-0.0956;
-108.3000;0.1530;-0.0980;
-108.0000;0.1522;-0.0980;
-107.7000;0.1506;-0.0908;
-107.4000;0.1490;-0.0980;
-107.1000;0.1506;-0.0980;
-106.8000;0.1400;-0.1219;
-106.5000;0.1506;-0.0836;
-106.2000;0.1506;-0.0884;
-105.9000;0.1506;-0.0908;
-105.6000;0.1522;-0.0932;
-105.3000;0.1522;-0.1004;
-105.0000;0.1514;-0.1123;
-104.7000;0.1530;-0.1099;
-104.4000;0.1538;-0.1028;
-104.1000;0.1490;-0.1099;
-103.8000;0.1522;-0.0980;
-103.5000;0.1514;-0.1004;
-103.2000;0.1506;-0.1051;
-102.9000;0.1506;-0.1028;
-102.6000;0.1465;-0.1147;
-102.3000;0.1506;-0.1004;
-102.0000;0.1530;-0.0956;
-101.7000;0.1481;-0.1051;
-101.4000;0.1506;-0.1099;
-101.1000;0.1522;-0.1028;
-100.8000;0.1481;-0.1171;
-100.5000;0.1563;-0.0980;
-100.2000;0.1522;-0.0980;
-99.9000;0.1425;-0.1243;
-99.6000;0.1530;-0.1051;
-99.3000;0.1547;-0.1051;
-99.0000;0.1506;-0.1171;
-98.7000;0.1612;-0.0932;
-98.4000;0.1538;-0.1075;
-98.1000;0.1514;-0.1099;
-97.8000;0.1571;-0.0860;
-97.5000;0.1498;-0.1099;
-97.2000;0.1498;-0.1099;
-96.9000;0.1514;-0.0980;
-96.6000;0.1506;-0.0956;
-96.3000;0.1490;-0.1028;
-96.0000;0.1498;-0.1028;
-95.7000;0.1522;-0.0908;
-95.4000;0.1498;-0.0980;
-95.1000;0.1498;-0.1051;
-94.8000;0.1514;-0.1028;
-94.5000;0.1522;-0.1099;
-94.2000;0.1514;-0.1147;
-93.9000;0.1514;-0.1171;
-93.6000;0.1473;-0.1219;
-93.3000;0.1530;-0.1028;
-93.0000;0.1498;-0.1051;
-92.7000;0.1522;-0.0932;
-92.4000;0.1522;-0.1051;
-92.1000;0.1498;-0.1075;
-91.8000;0.1522;-0.1028;
-91.5000;0.1522;-0.0956;
-91.2000;0.1506;-0.0956;
-90.9000;0.1490;-0.0956;
-90.6000;0.1498;-0.0908;
-90.3000;0.1522;-0.0860;
-90.0000;0.1490;-0.0908;
-89.7000;0.1522;-0.0932;
-89.4000;0.1490;-0.1028;
-89.1000;0.1587;-0.0741;
-88.8000;0.1498;-0.0932;
-88.5000;0.1506;-0.0884;
-88.2000;0.1498;-0.0884;
-87.9000;0.1514;-0.0812;
-87.6000;0.1498;-0.0860;
-87.3000;0.1498;-0.0836;
-87.0000;0.1522;-0.0789;
-86.7000;0.1465;-0.1051;
-86.4000;0.1490;-0.1004;
-86.1000;0.1498;-0.0956;
-85.8000;0.1522;-0.0860;
-85.5000;0.1514;-0.0860;
-85.2000;0.1522;-0.0860;
-84.9000;0.1522;-0.0884;
-84.6000;0.1514;-0.0932;
-84.3000;0.1514;-0.0956;
-84.0000;0.1433;-0.1171;
-83.7000;0.1490;-0.0956;
-83.4000;0.1530;-0.0765;
-83.1000;0.1481;-0.0884;
-82.8000;0.1457;-0.0860;
-82.5000;0.1506;-0.0669;
-82.2000;0.1490;-0.0812;
-81.9000;0.1514;-0.0789;
-81.6000;0.1490;-0.0836;
-81.3000;0.1498;-0.0932;
-81.0000;0.1498;-0.1004;
-80.7000;0.1522;-0.0956;
-80.4000;0.1506;-0.1028;
-80.1000;0.1498;-0.1099;
-79.8000;0.1514;-0.1075;
-79.5000;0.1506;-0.1051;
-79.2000;0.1514;-0.1099;
-78.9000;0.1514;-0.1075;
-78.6000;0.1457;-0.1195;
-78.3000;0.1514;-0.1004;
-78.0000;0.1473;-0.1051;
-77.7000;0.1547;-0.0860;
-77.4000;0.1514;-0.0932;
-77.1000;0.1514;-0.0980;
-76.8000;0.1522;-0.0884;
-76.5000;0.1522;-0.0836;
-76.2000;0.1506;-0.0884;
-75.9000;0.1514;-0.0884;
-75.6000;0.1506;-0.0956;
-75.3000;0.1514;-0.0980;
-75.0000;0.1514;-0.1051;
-74.7000;0.1538;-0.1028;
-74.4000;0.1506;-0.1051;
-74.1000;0.1538;-0.0980;
-73.8000;0.1514;-0.1123;
-73.5000;0.1498;-0.1219;
-73.2000;0.1498;-0.1243;
-72.9000;0.1490;-0.1219;
-72.6000;0.1522;-0.1004;
-72.3000;0.1506;-0.1004;
-72.0000;0.1481;-0.1147;
-71.7000;0.1514;-0.1099;
-71.4000;0.1490;-0.1123;
-71.1000;0.1522;-0.1051;
-70.8000;0.1604;-0.0860;
-70.5000;0.1506;-0.1147;
-70.2000;0.1465;-0.1290;
-69.9000;0.1636;-0.0836;
-69.6000;0.1514;-0.1099;
-69.3000;0.1514;-0.1051;
-69.0000;0.1457;-0.1147;
-68.7000;0.1547;-0.0789;
-68.4000;0.1522;-0.0908;
-68.1000;0.1506;-0.0860;
-67.8000;0.1522;-0.0836;
-67.5000;0.1490;-0.0932;
-67.2000;0.1579;-0.0765;
-66.9000;0.1530;-0.0932;
-66.6000;0.1490;-0.1028;
-66.3000;0.1498;-0.1004;
-66.0000;0.1522;-0.0860;
-65.7000;0.1514;-0.0932;
-65.4000;0.1498;-0.1099;
-65.1000;0.1506;-0.1051;
-64.8000;0.1506;-0.1028;
-64.5000;0.1522;-0.1004;
-64.2000;0.1522;-0.1004;
-63.9000;0.1490;-0.1099;
-63.6000;0.1522;-0.1099;
-63.3000;0.1522;-0.1028;
-63.0000;0.1522;-0.0980;
-62.7000;0.1498;-0.1051;
-62.4000;0.1530;-0.0980;
-62.1000;0.1514;-0.0956;
-61.8000;0.1506;-0.1004;
-61.5000;0.1506;-0.1004;
-61.2000;0.1490;-0.1147;
-60.9000;0.1514;-0.1147;
-60.6000;0.1506;-0.1099;
-60.3000;0.1571;-0.0860;
-60.0000;0.1498;-0.1004;
-59.7000;0.1506;-0.1099;
-59.4000;0.1530;-0.1099;
-59.1000;0.1498;-0.1171;
-58.8000;0.1376;-0.1434;
-58.5000;0.1514;-0.1147;
-58.2000;0.1473;-0.1243;
-57.9000;0.1441;-0.1290;
-57.6000;0.1506;-0.1123;
-57.3000;0.1506;-0.1171;
-57.0000;0.1498;-0.1099;
-56.7000;0.1498;-0.1051;
-56.4000;0.1506;-0.0980;
-56.1000;0.1490;-0.1123;
-55.8000;0.1530;-0.0956;
-55.5000;0.1490;-0.1099;
-55.2000;0.1514;-0.1004;
-54.9000;0.1522;-0.0980;
-54.6000;0.1498;-0.1099;
-54.3000;0.1514;-0.1051;
-54.0000;0.1498;-0.1099;
-53.7000;0.1498;-0.1099;
-53.4000;0.1506;-0.1099;
-53.1000;0.1522;-0.1075;
-52.8000;0.1506;-0.1051;
-52.5000;0.1498;-0.1075;
-52.2000;0.1506;-0.1171;
-51.9000;0.1506;-0.1171;
-51.6000;0.1530;-0.1266;
-51.3000;0.1522;-0.1338;
-51.0000;0.1514;-0.1410;
-50.7000;0.1514;-0.1434;
-50.4000;0.1522;-0.1458;
-50.1000;0.1506;-0.1434;
-49.8000;0.1441;-0.1553;
-49.5000;0.1522;-0.1290;
-49.2000;0.1481;-0.1314;
-48.9000;0.1530;-0.1171;
-48.6000;0.1506;-0.1338;
-48.3000;0.1530;-0.1195;
-48.0000;0.1506;-0.1243;
-47.7000;0.1506;-0.1195;
-47.4000;0.1506;-0.1243;
-47.1000;0.1498;-0.1243;
-46.8000;0.1498;-0.1219;
-46.5000;0.1498;-0.1219;
-46.2000;0.1530;-0.1171;
-45.9000;0.1514;-0.1195;
-45.6000;0.1547;-0.1099;
-45.3000;0.1514;-0.1219;
-45.0000;0.1498;-0.1243;
-44.7000;0.1530;-0.1051;
-44.4000;0.1481;-0.1171;
-44.1000;0.1514;-0.1123;
-43.8000;0.1530;-0.1123;
-43.5000;0.1530;-0.1123;
-43.2000;0.1514;-0.1243;
-42.9000;0.1514;-0.1266;
-42.6000;0.1530;-0.1147;
-42.3000;0.1522;-0.1195;
-42.0000;0.1522;-0.1243;
-41.7000;0.1547;-0.1171;
-41.4000;0.1506;-0.1219;
-41.1000;0.1498;-0.1195;
-40.8000;0.1490;-0.1266;
-40.5000;0.1506;-0.1243;
-40.2000;0.1522;-0.1147;
-39.9000;0.1522;-0.1147;
-39.6000;0.1514;-0.1219;
-39.3000;0.1522;-0.1219;
-39.0000;0.1506;-0.1219;
-38.7000;0.1498;-0.1171;
-38.4000;0.1506;-0.1123;
-38.1000;0.1506;-0.1099;
-37.8000;0.1498;-0.1147;
-37.5000;0.1522;-0.1099;
-37.2000;0.1498;-0.1147;
-36.9000;0.1514;-0.1123;
-36.6000;0.1506;-0.1051;
-36.3000;0.1644;-0.0621;
-36.0000;0.1498;-0.0932;
-35.7000;0.1490;-0.0956;
-35.4000;0.1522;-0.1004;
-35.1000;0.1481;-0.1123;
-34.8000;0.1506;-0.1147;
-34.5000;0.1506;-0.1099;
-34.2000;0.1457;-0.1266;
-33.9000;0.1514;-0.1147;
-33.6000;0.1514;-0.1219;
-33.3000;0.1579;-0.1171;
-33.0000;0.1490;-0.1314;
-32.7000;0.1506;-0.1171;
-32.4000;0.1530;-0.1171;
-32.1000;0.1514;-0.1243;
-31.8000;0.1498;-0.1219;
-31.5000;0.1490;-0.1290;
-31.2000;0.1522;-0.1290;
-30.9000;0.1498;-0.1338;
-30.6000;0.1726;-0.0765;
-30.3000;0.1506;-0.1362;
-30.0000;0.1506;-0.1410;
-29.7000;0.1498;-0.1290;
-29.4000;0.1538;-0.1171;
-29.1000;0.1433;-0.1386;
-28.8000;0.1506;-0.1147;
-28.5000;0.1530;-0.1028;
-28.2000;0.1498;-0.1051;
-27.9000;0.1490;-0.0980;
-27.6000;0.1555;-0.0956;
-27.3000;0.1514;-0.1123;
-27.0000;0.1514;-0.1195;
-26.7000;0.1498;-0.1362;
-26.4000;0.1465;-0.1434;
-26.1000;0.1481;-0.1458;
-25.8000;0.1490;-0.1410;
-25.5000;0.1522;-0.1338;
-25.2000;0.1506;-0.1266;
-24.9000;0.1498;-0.1219;
-24.6000;0.1392;-0.1458;
-24.3000;0.1433;-0.1362;
-24.0000;0.1514;-0.1123;
-23.7000;0.1481;-0.1195;
-23.4000;0.1498;-0.1051;
-23.1000;0.1506;-0.0980;
-22.8000;0.1498;-0.0980;
-22.5000;0.1571;-0.0717;
-22.2000;0.1514;-0.0908;
-21.9000;0.1579;-0.0789;
-21.6000;0.1506;-0.1099;
-21.3000;0.1506;-0.1099;
-21.0000;0.1481;-0.1219;
-20.7000;0.1530;-0.1147;
-20.4000;0.1514;-0.1243;
-20.1000;0.1522;-0.1243;
-19.8000;0.1506;-0.1338;
-19.5000;0.1514;-0.1290;
-19.2000;0.1538;-0.1171;
-18.9000;0.1514;-0.1290;
-18.6000;0.1481;-0.1434;
-18.3000;0.1506;-0.1482;
-18.0000;0.1514;-0.1505;
-17.7000;0.1498;-0.1458;
-17.4000;0.1514;-0.1338;
-17.1000;0.1490;-0.1458;
-16.8000;0.1514;-0.1458;
-16.5000;0.1481;-0.1505;
-16.2000;0.1490;-0.1482;
-15.9000;0.1514;-0.1410;
-15.6000;0.1481;-0.1410;
-15.3000;0.1587;-0.1147;
-15.0000;0.1514;-0.1362;
-14.7000;0.1514;-0.1362;
-14.4000;0.1522;-0.1338;
-14.1000;0.1506;-0.1290;
-13.8000;0.1506;-0.1290;
-13.5000;0.1498;-0.1386;
-13.2000;0.1604;-0.1195;
-12.9000;0.1498;-0.1290;
-12.6000;0.1530;-0.1147;
-12.3000;0.1514;-0.1147;
-12.0000;0.1506;-0.1099;
-11.7000;0.1498;-0.1099;
-11.4000;0.1514;-0.1028;
-11.1000;0.1506;-0.1051;
-10.8000;0.1498;-0.1099;
-10.5000;0.1490;-0.1171;
-10.2000;0.1506;-0.1123;
-9.9000;0.1530;-0.1028;
-9.6000;0.1498;-0.1004;
-9.3000;0.1490;-0.1099;
-9.0000;0.1384;-0.1314;
-8.7000;0.1498;-0.1075;
-8.4000;0.1506;-0.1051;
-8.1000;0.1481;-0.1028;
-7.8000;0.1530;-0.0956;
-7.5000;0.1563;-0.0956;
-7.2000;0.1498;-0.1075;
-6.9000;0.1506;-0.1051;
-6.6000;0.1555;-0.1004;
-6.3000;0.1522;-0.1099;
-6.0000;0.1449;-0.1243;
-5.7000;0.1376;-0.1458;
-5.4000;0.1620;-0.0836;
-5.1000;0.1490;-0.1171;
-4.8000;0.1571;-0.1075;
-4.5000;0.1490;-0.1290;
-4.2000;0.1530;-0.1147;
-3.9000;0.1498;-0.1195;
-3.6000;0.1506;-0.1219;
-3.3000;0.1473;-0.1266;
-3.0000;0.1506;-0.1147;
-2.7000;0.1530;-0.1123;
-2.4000;0.1514;-0.1147;
-2.1000;0.1449;-0.1266;
-1.8000;0.1522;-0.1099;
-1.5000;0.1522;-0.1028;
-1.2000;0.1498;-0.1004;
-0.9000;0.1538;-0.0836;
-0.6000;0.1506;-0.0956;
-0.3000;0.1465;-0.1075;
0.0000;0.1465;-0.1075;
0.3000;0.1579;-0.1147;
0.6000;0.1506;-0.1195;
0.9000;0.1522;-0.1004;
1.2000;0.1530;-0.0860;
1.5000;0.1530;-0.0717;
1.8000;0.1587;-0.0406;
2.1000;0.1555;-0.0406;
2.4000;0.1522;-0.0430;
2.7000;0.1538;-0.0239;
3.0000;0.1538;-0.0167;
3.3000;0.1490;-0.0287;
3.6000;0.1555;-0.0143;
3.9000;0.1530;-0.0167;
4.2000;0.1563;-0.0096;
4.5000;0.1514;-0.0239;
4.8000;0.1555;-0.0096;
5.1000;0.1563;-0.0119;
5.4000;0.1547;-0.0143;
5.7000;0.1547;-0.0143;
6.0000;0.1547;-0.0072;
6.3000;0.1530;-0.0048;
6.6000;0.1530;0.0072;
6.9000;0.1579;0.0215;
7.2000;0.1538;0.0239;
7.5000;0.1571;0.0263;
7.8000;0.1579;0.0287;
8.1000;0.1685;0.0574;
8.4000;0.1547;0.0263;
8.7000;0.1547;0.0311;
9.0000;0.1538;0.0287;
9.3000;0.1538;0.0263;
9.6000;0.1538;0.0239;
9.9000;0.1563;0.0191;
10.2000;0.1563;0.0096;
10.5000;0.1571;0.0096;
10.8000;0.1547;0.0119;
11.1000;0.1571;0.0143;
11.4000;0.1547;0.0167;
11.7000;0.1538;0.0072;
12.0000;0.1555;0.0167;
12.3000;0.1514;0.0096;
12.6000;0.1538;0.0143;
12.9000;0.1555;0.0191;
13.2000;0.1587;0.0335;
13.5000;0.1547;0.0215;
13.8000;0.1522;0.0167;
14.1000;0.1563;0.0239;
14.4000;0.1579;0.0263;
14.7000;0.1538;0.0239;
15.0000;0.1530;0.0191;
15.3000;0.1538;0.0215;
15.6000;0.1530;0.0263;
15.9000;0.1555;0.0311;
16.2000;0.1612;0.0478;
16.5000;0.1538;0.0287;
16.8000;0.1563;0.0382;
17.1000;0.1547;0.0311;
17.4000;0.1604;0.0406;
17.7000;0.1555;0.0311;
18.0000;0.1547;0.0215;
18.3000;0.1595;0.0311;
18.6000;0.1587;0.0287;
18.9000;0.1620;0.0430;
19.2000;0.1514;0.0215;
19.5000;0.1441;0.0096;
19.8000;0.1563;0.0263;
20.1000;0.1571;0.0215;
20.4000;0.1538;0.0096;
20.7000;0.1538;0.0096;
21.0000;0.1579;0.0287;
21.3000;0.1547;0.0215;
21.6000;0.1522;0.0215;
21.9000;0.1563;0.0358;
22.2000;0.1563;0.0382;
22.5000;0.1538;0.0311;
22.8000;0.1547;0.0382;
23.1000;0.1579;0.0502;
23.4000;0.1555;0.0454;
23.7000;0.1547;0.0478;
24.0000;0.1506;0.0287;
24.3000;0.1530;0.0335;
24.6000;0.1538;0.0382;
24.9000;0.1530;0.0454;
25.2000;0.1538;0.0502;
25.5000;0.1538;0.0478;
25.8000;0.1538;0.0406;
26.1000;0.1547;0.0406;
26.4000;0.1530;0.0311;
26.7000;0.1538;0.0191;
27.0000;0.1538;0.0191;
27.3000;0.1547;0.0263;
27.6000;0.1547;0.0287;
27.9000;0.1612;0.0478;
28.2000;0.1555;0.0335;
28.5000;0.1555;0.0358;
28.8000;0.1547;0.0335;
29.1000;0.1506;0.0215;
